timestamp,EEG1,EEG2,EEG3,EEG4,EEG5,EEG6,EEG7,EEG8,AccelerometerX,AccelerometerY,AccelerometerZ,GyroscopeX,GyroscopeY,GyroscopeZ,BatteryLevel,Counter,ValidationIndicator
1690535469479,16.833937,8.74253,14.676665,18.749961,29.616822,11.683314,11.299948,-2.426029,0.027,0.959,-0.215,0.632,1.754,1.272,93.333,206206,1
1690535469483,19.021665,13.029357,17.249094,21.085156,23.75124,10.720448,6.060261,-4.739464,0.028,0.958,-0.216,0.662,1.693,1.387,93.333,206207,1
1690535469487,24.258261,11.946814,17.599102,16.270461,16.163861,3.009074,5.358513,-4.121914,0.03,0.958,-0.214,0.672,1.668,1.306,93.333,206208,1
1690535469491,28.210449,15.750335,19.556622,14.354947,14.627373,0.003246,-4.625254,-10.562861,0.023,0.957,-0.213,0.704,1.798,1.392,93.333,206209,1
1690535469495,25.726432,14.934086,15.650485,5.822323,10.397518,-4.487904,-8.78112,-13.334258,0.026,0.958,-0.215,0.59,1.707,1.403,93.333,206210,1
1690535469499,26.766185,16.107205,10.16538,7.265448,4.608927,-9.629813,-13.196792,-15.973458,0.028,0.957,-0.214,0.542,1.703,1.336,93.333,206211,1
1690535469503,26.456178,12.287195,4.342136,1.612693,-1.229805,-12.968777,-16.357948,-14.168393,0.028,0.959,-0.215,0.566,1.688,1.463,93.333,206212,1
1690535469507,20.328543,6.778686,-0.967634,0.01201,-2.003523,-13.222696,-17.470673,-15.188951,0.028,0.958,-0.213,0.683,1.661,1.304,93.333,206213,1
1690535469511,19.559749,2.099435,-1.741052,-5.863695,-8.149755,-15.079065,-16.314854,-13.311495,0.027,0.958,-0.214,0.695,1.721,1.423,93.333,206214,1
1690535469515,14.685973,0.140194,-4.742919,-6.432637,-6.452149,-14.381226,-13.464306,-11.075883,0.031,0.958,-0.216,0.663,1.569,1.385,93.333,206215,1
1690535469519,9.618953,-2.415441,-10.771852,-16.441721,-13.849915,-16.835405,-15.665158,-8.536732,0.03,0.958,-0.215,0.588,1.65,1.333,93.333,206216,1
1690535469523,5.500599,-8.279078,-14.93614,-13.446555,-11.963638,-10.41378,-7.592698,-4.757952,0.025,0.96,-0.215,0.641,1.823,1.424,93.333,206217,1
1690535469527,-3.019705,-9.59483,-12.059055,-15.680253,-15.589518,-10.493718,-3.074285,-0.025036,0.028,0.957,-0.216,0.664,1.624,1.401,93.333,206218,1
1690535469531,-3.24987,-14.751132,-14.953589,-17.657657,-9.357251,-2.85013,3.107453,3.013943,0.026,0.958,-0.215,0.685,1.697,1.441,93.333,206219,1
1690535469535,-10.830538,-14.125638,-20.128608,-16.67286,-7.881347,-4.824635,3.549422,6.787979,0.028,0.959,-0.214,0.762,1.779,1.43,93.333,206220,1
1690535469539,-9.654938,-19.961643,-20.517609,-13.717341,-5.852071,4.863994,9.296755,5.469628,0.027,0.959,-0.214,0.719,1.675,1.441,93.333,206221,1
1690535469543,-12.357916,-15.999231,-15.824385,-6.205915,2.263324,8.677574,8.093196,15.97221,0.028,0.958,-0.215,0.611,1.608,1.4,93.333,206222,1
1690535469547,-13.778314,-14.853259,-14.418582,-2.031265,3.86241,14.566717,14.299272,14.935099,0.027,0.959,-0.214,0.694,1.715,1.361,93.333,206223,1
1690535469551,-10.169195,-10.44699,-7.838882,4.844585,8.742302,14.885766,19.423131,20.028771,0.026,0.957,-0.216,0.74,1.685,1.372,93.333,206224,1
1690535469555,-8.869569,-8.37154,-3.549838,8.165676,13.79065,17.135491,20.949925,13.810922,0.03,0.958,-0.216,0.661,1.679,1.299,93.333,206225,1
1690535469559,-10.457831,-7.468404,1.44205,10.778101,14.659957,20.453834,24.431383,15.70707,0.026,0.958,-0.216,0.701,1.642,1.458,93.333,206226,1
1690535469563,-1.234675,-2.808554,4.712046,14.494373,18.884036,22.246151,22.49208,13.009204,0.026,0.958,-0.213,0.64,1.769,1.449,93.333,206227,1
1690535469567,-3.722708,3.27638,8.848702,21.210549,21.359639,19.776723,20.982363,8.347949,0.03,0.959,-0.216,0.654,1.707,1.34,93.333,206228,1
1690535469571,4.503471,4.555724,11.999933,23.545992,23.041214,20.124667,15.436989,2.979288,0.026,0.958,-0.215,0.559,1.709,1.39,93.333,206229,1
1690535469575,7.439751,8.633202,15.298536,20.998086,21.09585,16.999234,15.220076,0.820788,0.027,0.957,-0.216,0.637,1.73,1.361,93.333,206230,1
1690535469579,13.808126,16.562981,17.506624,22.703868,18.333769,13.625164,10.932644,-1.753134,0.028,0.957,-0.215,0.733,1.759,1.349,93.333,206231,1
1690535469583,15.279707,18.835083,16.197329,24.008683,16.469636,7.445327,2.619251,-6.209335,0.028,0.958,-0.217,0.792,1.785,1.403,93.333,206232,1
1690535469587,20.389152,16.698323,16.032055,21.38177,8.244449,-1.260361,-1.69842,-11.617328,0.026,0.96,-0.213,0.635,1.665,1.36,93.333,206233,1
1690535469591,19.735668,21.096625,18.266375,19.722451,7.983579,-2.340268,-7.016064,-14.299861,0.03,0.96,-0.217,0.711,1.7,1.337,93.333,206234,1
1690535469595,23.573833,22.216052,14.663584,14.112508,1.15469,-12.074858,-12.334722,-17.073012,0.034,0.957,-0.215,0.749,1.79,1.315,93.333,206235,1
1690535469599,21.162567,19.54361,13.125945,11.911298,-4.745728,-17.141921,-13.217019,-19.540619,0.026,0.958,-0.215,0.676,1.699,1.416,93.333,206236,1
1690535469603,19.458413,14.440462,8.752547,10.653532,-9.53878,-19.035855,-14.785057,-19.071907,0.024,0.956,-0.214,0.73,1.802,1.276,93.333,206237,1
1690535469607,22.21244,12.733322,1.317467,1.2097,-16.140756,-19.661042,-14.931157,-19.770428,0.028,0.959,-0.217,0.781,1.695,1.442,93.333,206238,1
1690535469611,13.2655,6.653605,-1.266558,0.914833,-17.892099,-22.430952,-15.977051,-14.873477,0.025,0.959,-0.215,0.692,1.722,1.334,93.333,206239,1
1690535469615,13.31906,4.061446,-5.721003,-7.040734,-21.247116,-20.584399,-14.165719,-14.842927,0.024,0.958,-0.215,0.732,1.707,1.433,93.333,206240,1
1690535469619,8.316041,-1.585899,-13.150258,-7.114635,-22.127428,-22.022927,-12.959806,-13.484814,0.027,0.959,-0.217,0.75,1.737,1.422,93.333,206241,1
1690535469623,6.449602,-6.424939,-15.685045,-8.958576,-23.350977,-19.8309,-11.264675,-4.128078,0.029,0.956,-0.216,0.827,1.72,1.31,93.333,206242,1
1690535469627,-4.674393,-10.261491,-12.950558,-8.08496,-21.939824,-17.208558,-7.118618,0.703768,0.03,0.958,-0.215,0.699,1.732,1.429,93.333,206243,1
1690535469631,-8.742188,-15.349133,-18.914898,-8.580466,-20.456429,-10.944971,-2.916817,1.07889,0.026,0.957,-0.213,0.729,1.818,1.328,93.333,206244,1
1690535469635,-10.826553,-15.859082,-19.894667,-9.619697,-13.173141,-7.913096,1.079361,9.106766,0.024,0.959,-0.214,0.72,1.675,1.358,93.333,206245,1
1690535469639,-16.757629,-20.344826,-14.968164,-1.523921,-13.168364,0.153514,6.782056,13.063635,0.027,0.959,-0.214,0.737,1.743,1.365,93.333,206246,1
1690535469643,-16.954138,-16.088954,-15.739595,-3.073448,-7.177143,4.325461,6.56759,15.464592,0.029,0.959,-0.215,0.576,1.67,1.386,93.333,206247,1
1690535469647,-17.685007,-15.854869,-10.862307,0.522567,-3.995526,5.675183,10.850528,16.254544,0.028,0.958,-0.215,0.716,1.752,1.436,93.333,206248,1
1690535469651,-18.118405,-13.052091,-7.505024,4.926168,1.029775,10.27837,14.849093,17.829476,0.024,0.956,-0.214,0.758,1.806,1.394,93.333,206249,1
1690535469655,-14.425553,-10.291484,-5.959145,13.573865,4.647577,12.820963,16.230758,17.095179,0.025,0.956,-0.213,0.71,1.779,1.353,93.333,206250,1
1690535469659,-14.651233,-7.155749,-1.041672,10.231068,11.954017,15.768487,16.161096,15.124065,0.027,0.958,-0.215,0.744,1.694,1.218,93.333,206251,1
1690535469663,-11.059161,-1.537193,7.5181,16.89603,13.593118,17.040196,16.862567,12.537544,0.026,0.96,-0.215,0.744,1.747,1.329,93.333,206252,1
1690535469667,-10.333542,-0.169717,10.039601,17.449091,15.865041,15.127453,11.247184,11.186788,0.028,0.958,-0.215,0.823,1.714,1.366,93.333,206253,1
1690535469671,-0.136597,2.095416,14.989487,21.099771,14.582697,16.295706,11.22816,8.427127,0.029,0.959,-0.215,0.768,1.777,1.254,93.333,206254,1
1690535469675,0.069174,7.556455,16.685644,21.929597,14.459386,9.476969,8.914118,1.586594,0.028,0.958,-0.213,0.776,1.727,1.369,93.333,206255,1
1690535469679,1.308647,11.547391,14.436366,18.891644,13.461317,13.425928,2.508422,0.238922,0.029,0.96,-0.214,0.814,1.755,1.338,93.333,206256,1
1690535469683,7.412109,12.934981,17.482545,18.791463,15.397037,2.34142,-6.610148,-5.338609,0.026,0.96,-0.215,0.745,1.75,1.364,93.333,206257,1
1690535469687,9.777421,16.46097,18.35295,18.874627,3.781161,-0.99321,-6.755948,-9.385073,0.03,0.959,-0.214,0.666,1.813,1.357,93.333,206258,1
1690535469691,12.292341,18.403185,16.186061,15.54029,1.432059,-5.921842,-11.555861,-8.260483,0.027,0.958,-0.213,0.705,1.746,1.375,93.333,206259,1
1690535469695,14.117648,14.777487,12.895437,10.816552,-2.826953,-9.614842,-16.933352,-12.530142,0.025,0.957,-0.214,0.746,1.786,1.347,93.333,206260,1
1690535469699,13.693553,13.409537,11.645674,7.121966,-7.506342,-15.105953,-16.429878,-14.238427,0.025,0.958,-0.214,0.732,1.675,1.336,93.333,206261,1
1690535469703,9.579142,14.525249,7.386073,-0.264517,-11.512311,-20.264149,-21.448214,-14.842666,0.03,0.961,-0.214,0.752,1.704,1.323,93.333,206262,1
1690535469707,14.158668,9.010534,2.041426,-3.372671,-16.361836,-26.493451,-22.307876,-13.378113,0.027,0.958,-0.214,0.644,1.742,1.371,93.333,206263,1
1690535469711,8.453641,1.185485,-1.602144,-8.451715,-18.222446,-24.443823,-18.267221,-15.532064,0.025,0.958,-0.214,0.778,1.796,1.322,93.333,206264,1
1690535469715,4.599582,0.232775,-7.04327,-12.457852,-23.827053,-23.533524,-15.603884,-11.655913,0.028,0.958,-0.214,0.747,1.769,1.368,93.333,206265,1
1690535469719,2.666829,-3.412207,-10.024081,-11.372471,-23.30181,-25.709841,-15.485213,-8.21033,0.031,0.958,-0.216,0.734,1.694,1.276,93.333,206266,1
1690535469723,-4.641479,-7.325718,-14.595397,-16.207712,-27.208453,-21.674886,-11.809226,-3.948571,0.027,0.958,-0.216,0.771,1.653,1.314,93.333,206267,1
1690535469727,-8.386385,-12.890127,-16.098014,-17.623488,-24.19192,-17.107438,-7.025074,0.986005,0.026,0.959,-0.216,0.756,1.746,1.311,93.333,206268,1
1690535469731,-9.849678,-16.589235,-16.895703,-16.201601,-21.477185,-14.023469,-4.39778,6.780444,0.029,0.96,-0.215,0.752,1.739,1.347,93.333,206269,1
1690535469735,-15.34479,-19.958502,-16.061026,-19.90484,-13.974366,-7.287631,-1.24013,5.992805,0.027,0.959,-0.215,0.698,1.83,1.404,93.333,206270,1
1690535469739,-23.144993,-22.180089,-16.137913,-16.80857,-10.933776,-6.19061,3.554784,12.66484,0.032,0.958,-0.216,0.803,1.685,1.301,93.333,206271,1
1690535469743,-17.493834,-22.837312,-14.261302,-11.603859,-5.360503,0.814582,3.027308,15.097542,0.031,0.96,-0.216,0.705,1.794,1.253,93.333,206272,1
1690535469747,-21.253437,-21.469087,-13.912985,-7.561239,-2.426479,3.178622,11.392553,19.783853,0.028,0.959,-0.213,0.702,1.707,1.405,93.333,206273,1
1690535469751,-18.922982,-14.749177,-8.35673,-5.677742,3.357999,6.611668,13.123048,20.499211,0.029,0.959,-0.214,0.737,1.78,1.335,93.333,206274,1
1690535469755,-18.604318,-15.289369,-4.548253,-1.196074,6.224191,12.261263,15.955849,21.387321,0.025,0.959,-0.215,0.913,1.709,1.255,93.333,206275,1
1690535469759,-18.298634,-7.40242,1.476539,4.362483,11.076504,15.970599,19.365393,17.75394,0.027,0.958,-0.214,0.69,1.74,1.435,93.333,206276,1
1690535469763,-13.156737,-1.483731,4.707174,2.040031,11.538943,18.968191,18.472943,18.693297,0.028,0.96,-0.214,0.706,1.759,1.247,93.333,206277,1
1690535469767,-11.330246,3.181491,7.76882,9.163082,15.706892,15.538897,18.248508,12.927545,0.029,0.958,-0.216,0.831,1.817,1.384,93.333,206278,1
1690535469771,-4.63784,7.369062,14.478511,11.845015,17.73871,14.830017,13.755954,7.531651,0.028,0.959,-0.214,0.757,1.757,1.374,93.333,206279,1
1690535469775,2.498116,10.780289,15.860764,11.117316,20.996856,11.515128,8.539841,1.895671,0.028,0.958,-0.213,0.806,1.611,1.287,93.332,206280,1
1690535469779,6.956266,10.981625,16.560382,16.9896,12.873642,11.490245,5.088114,-3.201803,0.028,0.959,-0.215,0.785,1.747,1.355,93.332,206281,1
1690535469783,13.394743,15.726248,17.411832,14.309722,11.673094,7.440481,0.366055,-3.877937,0.026,0.958,-0.215,0.72,1.781,1.375,93.332,206282,1
1690535469787,14.719882,15.458905,14.692893,12.498684,9.535244,3.245198,-2.367765,-7.73103,0.024,0.958,-0.215,0.774,1.686,1.375,93.332,206283,1
1690535469791,13.418212,18.651987,14.202566,11.537718,6.701632,-3.37373,-10.537174,-15.690321,0.03,0.958,-0.214,0.755,1.649,1.29,93.332,206284,1
1690535469795,13.89237,20.852961,11.870423,0.716742,0.193836,-8.027738,-10.445148,-17.808649,0.026,0.961,-0.215,0.817,1.722,1.281,93.332,206285,1
1690535469799,17.653964,15.937496,11.470682,0.899463,-2.217522,-12.007257,-11.567294,-23.10733,0.026,0.958,-0.214,0.729,1.773,1.345,93.332,206286,1
1690535469803,20.74127,15.10804,9.32867,-5.912016,-9.387469,-13.414935,-17.347993,-24.719292,0.031,0.96,-0.215,0.833,1.795,1.342,93.332,206287,1
1690535469807,16.319019,10.611802,0.735883,-10.951083,-11.807124,-18.496444,-16.124514,-22.222868,0.028,0.957,-0.215,0.852,1.823,1.255,93.332,206288,1
1690535469811,11.617704,7.905312,-5.145975,-14.957004,-13.571092,-19.464713,-14.767526,-20.517712,0.029,0.958,-0.215,0.666,1.782,1.281,93.332,206289,1
1690535469815,8.255126,6.574879,-7.199737,-24.550381,-19.603632,-15.625376,-17.441406,-18.046634,0.027,0.959,-0.214,0.867,1.693,1.242,93.332,206290,1
1690535469819,4.547428,1.346141,-10.65165,-21.740547,-21.212494,-15.448124,-15.648143,-13.046667,0.027,0.958,-0.215,0.73,1.751,1.422,93.332,206291,1
1690535469823,-4.618995,-7.121875,-11.058541,-27.067485,-22.938566,-14.216332,-13.392899,-8.7737,0.028,0.96,-0.213,0.769,1.689,1.304,93.332,206292,1
1690535469827,-3.190138,-4.319194,-15.293918,-26.739217,-21.979126,-14.412903,-8.066653,-2.814863,0.029,0.96,-0.214,0.84,1.743,1.321,93.332,206293,1
1690535469831,-7.223531,-13.086281,-17.373929,-27.517004,-17.875757,-10.732722,-3.697837,-1.363695,0.025,0.958,-0.214,0.781,1.62,1.413,93.332,206294,1
1690535469835,-12.054808,-15.08713,-18.973196,-26.080806,-16.383101,-7.860502,-0.049874,3.549459,0.027,0.958,-0.214,0.772,1.771,1.354,93.332,206295,1
1690535469839,-17.850995,-16.076267,-15.582591,-26.867309,-9.058979,-0.63743,6.300226,10.480539,0.024,0.96,-0.216,0.73,1.764,1.275,93.332,206296,1
1690535469843,-19.824949,-16.956228,-15.490118,-15.487457,-2.541518,3.803313,11.477003,11.339109,0.027,0.957,-0.212,0.838,1.645,1.271,93.332,206297,1
1690535469847,-21.634879,-19.787424,-17.16688,-12.958484,3.154886,11.154849,14.581535,20.020012,0.031,0.958,-0.214,0.882,1.772,1.396,93.332,206298,1
1690535469851,-23.465294,-14.789273,-11.987693,-15.641414,9.909884,13.052381,20.869048,21.163018,0.031,0.955,-0.213,0.768,1.781,1.322,93.332,206299,1
1690535469855,-22.729346,-11.061955,-7.439275,-9.791745,10.528421,16.502616,17.929806,19.037766,0.027,0.957,-0.215,0.803,1.789,1.271,93.332,206300,1
1690535469859,-15.497874,-6.068306,0.208719,-4.966344,11.267308,18.819468,20.429134,16.772952,0.025,0.959,-0.215,0.876,1.811,1.224,93.332,206301,1
1690535469863,-19.478927,-0.696466,2.939512,2.145685,13.370131,20.983956,20.281521,13.775383,0.028,0.958,-0.215,0.836,1.761,1.351,93.332,206302,1
1690535469867,-9.813794,3.691529,10.215313,5.821793,18.860872,19.792137,19.642826,9.646198,0.027,0.957,-0.213,0.846,1.756,1.292,93.332,206303,1
1690535469871,-7.003512,5.984429,14.03577,9.604043,15.812232,20.520733,18.047519,7.904715,0.03,0.959,-0.214,0.804,1.811,1.249,93.332,206304,1
1690535469875,-3.184414,10.948282,21.534451,8.68127,16.665542,15.164602,16.669609,4.934597,0.03,0.956,-0.214,0.798,1.776,1.282,93.332,206305,1
1690535469879,0.175769,11.429386,14.017627,14.8583,14.7205,15.043974,9.301502,1.641296,0.027,0.959,-0.215,0.764,1.691,1.312,93.332,206306,1
1690535469883,5.464681,17.004853,17.981586,12.7808,11.953297,12.956846,6.36666,-5.127508,0.029,0.957,-0.215,0.872,1.783,1.347,93.332,206307,1
1690535469887,8.504605,14.492173,16.403061,11.120295,9.515598,9.098254,0.361993,-8.861575,0.028,0.958,-0.217,0.816,1.809,1.233,93.332,206308,1
1690535469891,9.482475,17.937252,13.688238,7.732422,5.321243,2.388102,-5.051463,-13.210837,0.029,0.959,-0.215,0.818,1.703,1.339,93.332,206309,1
1690535469895,13.966761,15.582451,10.715936,2.930824,-1.749272,-1.586613,-7.768602,-16.83855,0.028,0.958,-0.214,0.801,1.738,1.269,93.332,206310,1
1690535469899,8.593403,13.023129,11.888632,1.475878,-2.588178,-8.03708,-11.258253,-17.821925,0.03,0.959,-0.214,0.718,1.705,1.259,93.332,206311,1
1690535469903,15.780162,13.085147,5.415091,-5.909186,-8.616487,-12.701928,-15.103246,-14.795809,0.03,0.958,-0.214,0.795,1.788,1.236,93.332,206312,1
1690535469907,10.155274,10.464297,-0.265937,-10.456372,-10.586487,-10.405007,-15.490088,-14.131643,0.027,0.958,-0.215,0.721,1.755,1.327,93.332,206313,1
1690535469911,12.612524,1.91445,-3.06387,-13.450981,-11.78671,-15.545937,-8.115647,-14.534335,0.028,0.958,-0.215,0.852,1.694,1.317,93.332,206314,1
1690535469915,4.407988,-2.460462,-8.051252,-17.023845,-16.0063,-13.832762,-11.941091,-12.334836,0.028,0.959,-0.215,0.805,1.719,1.342,93.332,206315,1
1690535469919,-0.333317,-3.712458,-9.71094,-20.568607,-15.974778,-16.549025,-9.847431,-10.205881,0.026,0.959,-0.214,0.831,1.703,1.295,93.332,206316,1
1690535469923,-6.393617,-8.411546,-15.810813,-21.759811,-18.852093,-10.451947,-8.719397,-4.960198,0.032,0.961,-0.214,0.775,1.79,1.251,93.332,206317,1
1690535469927,-8.327895,-11.134369,-17.95746,-18.428245,-17.679816,-8.831163,-5.852992,-3.479171,0.027,0.958,-0.215,0.742,1.773,1.269,93.332,206318,1
1690535469931,-13.733784,-11.695377,-14.953994,-19.28511,-16.346951,-5.481224,-2.182944,4.056959,0.028,0.957,-0.213,0.779,1.763,1.273,93.332,206319,1
1690535469935,-14.898387,-14.716475,-13.859176,-19.625829,-11.920356,1.379904,4.748917,5.714314,0.028,0.958,-0.214,0.806,1.824,1.22,93.332,206320,1
1690535469939,-15.395458,-19.873335,-17.53617,-14.245291,-10.111656,1.91594,4.69101,13.158676,0.029,0.957,-0.214,0.763,1.765,1.236,93.332,206321,1
1690535469943,-20.740081,-22.304647,-16.497127,-12.635265,-3.803786,8.095562,7.590691,17.329571,0.034,0.959,-0.216,0.821,1.806,1.212,93.332,206322,1
1690535469947,-20.445474,-19.105107,-7.44409,-8.810118,0.137,9.940184,10.981498,17.922216,0.028,0.959,-0.213,0.881,1.709,1.279,93.332,206323,1
1690535469951,-21.491848,-18.854874,-12.032611,-1.628376,2.653783,16.946971,15.527706,19.839527,0.03,0.959,-0.214,0.899,1.679,1.247,93.332,206324,1
1690535469955,-19.76688,-13.844577,-4.568391,5.94859,5.982192,15.949296,18.462629,21.080967,0.029,0.96,-0.214,0.799,1.831,1.314,93.332,206325,1
1690535469959,-20.474038,-11.26795,-0.075498,4.806329,10.009149,18.37169,16.860945,13.947449,0.03,0.959,-0.213,0.902,1.753,1.303,93.332,206326,1
1690535469963,-17.895622,-6.340956,4.44366,10.29155,12.554532,21.99104,17.135409,14.603237,0.026,0.958,-0.213,0.852,1.637,1.29,93.332,206327,1
1690535469967,-12.457583,-1.817493,8.346148,15.048177,19.263337,26.469063,15.020384,14.137987,0.028,0.959,-0.215,0.793,1.783,1.324,93.332,206328,1
1690535469971,-10.797115,1.450416,9.083652,19.763096,19.833871,24.231549,10.445279,9.675845,0.03,0.958,-0.214,0.838,1.839,1.271,93.332,206329,1
1690535469975,-2.66747,10.560661,16.970279,21.435772,18.863933,22.783584,5.326467,3.323931,0.029,0.959,-0.215,0.906,1.854,1.29,93.332,206330,1
1690535469979,0.974253,13.106513,15.893695,19.071075,16.959904,16.24943,5.350717,-0.112686,0.027,0.956,-0.214,0.864,1.869,1.262,93.332,206331,1
1690535469983,2.51734,16.074969,12.383,15.128274,12.862586,12.11443,0.8601,-1.334373,0.031,0.959,-0.213,0.793,1.717,1.268,93.332,206332,1
1690535469987,11.256327,15.645321,15.770374,17.200549,12.331777,4.260611,-2.230428,-7.60147,0.028,0.957,-0.214,0.877,1.858,1.283,93.332,206333,1
1690535469991,12.552835,17.743064,17.2811,12.295572,6.268512,3.160043,-13.874808,-11.842409,0.029,0.959,-0.216,0.903,1.76,1.346,93.332,206334,1
1690535469995,10.81243,16.401287,12.585289,8.579844,3.996677,-0.878894,-14.998265,-10.219871,0.026,0.96,-0.215,0.9,1.751,1.317,93.332,206335,1
1690535469999,17.290353,16.045615,13.001517,1.815511,-0.7337,-6.264193,-17.498016,-15.369031,0.025,0.958,-0.214,0.826,1.793,1.236,93.332,206336,1
1690535470003,12.622102,15.557636,9.215204,3.644921,-4.957129,-9.909372,-21.017268,-18.29349,0.028,0.959,-0.213,0.896,1.756,1.297,93.332,206337,1
1690535470007,13.418434,13.370335,5.865751,-1.342104,-7.092479,-13.951829,-19.517914,-17.998641,0.027,0.957,-0.213,0.757,1.812,1.294,93.332,206338,1
1690535470011,7.073707,7.876833,-2.967966,-5.182729,-13.301626,-18.816653,-19.600767,-18.999753,0.03,0.96,-0.215,0.925,1.738,1.297,93.332,206339,1
1690535470015,5.983202,3.880161,-3.686751,-10.301928,-17.98689,-20.949297,-17.188292,-13.12812,0.026,0.958,-0.214,0.778,1.768,1.337,93.332,206340,1
1690535470019,-0.923966,-1.417969,-8.408243,-10.491901,-17.615055,-17.889704,-16.602119,-14.457722,0.028,0.961,-0.216,0.843,1.592,1.207,93.332,206341,1
1690535470023,-3.615647,-5.340096,-16.769449,-13.794823,-16.295518,-16.756156,-9.371185,-6.113715,0.031,0.958,-0.213,0.893,1.789,1.34,93.332,206342,1
1690535470027,-8.810593,-10.081784,-18.34692,-13.37715,-15.414933,-14.919104,-6.578398,-8.066878,0.03,0.959,-0.214,0.882,1.834,1.183,93.332,206343,1
1690535470031,-10.656554,-14.155809,-18.284595,-17.246672,-18.115268,-13.186799,0.583233,-3.997587,0.028,0.957,-0.215,0.838,1.734,1.288,93.332,206344,1
1690535470035,-13.12241,-12.974739,-17.677777,-13.658334,-10.295314,-4.778544,-0.548408,5.631799,0.029,0.959,-0.214,0.934,1.777,1.322,93.332,206345,1
1690535470039,-12.822519,-14.036164,-20.43204,-8.976011,-9.52779,-2.914107,2.63662,8.298932,0.026,0.958,-0.216,1.006,1.64,1.28,93.332,206346,1
1690535470043,-16.20525,-13.42504,-14.168192,-6.196988,-4.838347,1.416528,7.042848,8.933012,0.027,0.958,-0.214,0.813,1.776,1.241,93.332,206347,1
1690535470047,-19.686721,-14.417003,-11.796606,-2.998537,0.70919,13.983062,9.964829,15.437342,0.032,0.962,-0.214,0.953,1.775,1.29,93.332,206348,1
1690535470051,-19.760932,-10.806971,-7.852579,4.765302,4.795983,14.881154,14.086615,15.546736,0.029,0.958,-0.214,0.828,1.758,1.275,93.332,206349,1
1690535470055,-21.292898,-8.504496,-1.567194,7.53307,10.66624,16.095964,13.945205,16.793046,0.025,0.959,-0.215,0.93,1.743,1.298,93.332,206350,1
1690535470059,-15.413038,-4.86375,-0.385433,11.901496,15.104898,18.542232,15.640344,18.366734,0.031,0.959,-0.214,0.857,1.735,1.297,93.332,206351,1
1690535470063,-13.280302,-4.498533,4.222031,16.518485,17.750263,22.537634,14.977239,13.104321,0.03,0.959,-0.214,0.821,1.794,1.277,93.332,206352,1
1690535470067,-8.598983,1.392133,8.096534,21.67015,20.901384,19.829245,12.234999,9.191005,0.033,0.959,-0.213,0.868,1.793,1.262,93.332,206353,1
1690535470071,-3.53481,6.660624,9.41521,21.695275,21.635237,17.392545,8.297583,5.516218,0.029,0.961,-0.212,0.902,1.758,1.28,93.332,206354,1
1690535470075,2.516183,8.665461,10.411866,21.914579,19.684791,17.002489,3.518079,2.899178,0.029,0.958,-0.214,0.938,1.821,1.249,93.332,206355,1
1690535470079,8.916927,14.137064,14.448791,20.935465,18.355001,11.872807,2.921454,-5.173164,0.027,0.958,-0.214,0.868,1.798,1.263,93.332,206356,1
1690535470083,11.365778,15.939701,15.501354,24.077397,18.139543,8.158497,-3.722963,-4.688941,0.026,0.959,-0.213,0.909,1.796,1.295,93.332,206357,1
1690535470087,15.983795,18.49377,14.110121,20.630314,14.717578,0.433494,-9.12446,-8.84599,0.028,0.958,-0.216,0.822,1.79,1.243,93.332,206358,1
1690535470091,17.567786,19.320764,11.557306,17.013625,9.955173,-3.49987,-8.353893,-14.304184,0.029,0.96,-0.213,0.897,1.745,1.315,93.332,206359,1
1690535470095,18.574053,18.41825,14.455444,12.264711,4.925604,-5.675728,-15.752482,-16.301415,0.027,0.958,-0.214,0.888,1.736,1.253,93.332,206360,1
1690535470099,24.171381,14.254825,10.694133,10.604987,2.288909,-12.02938,-16.625009,-18.849666,0.032,0.961,-0.215,0.903,1.826,1.29,93.332,206361,1
1690535470103,20.10662,16.636759,5.235566,2.660423,-3.310911,-16.202352,-21.353495,-15.740795,0.031,0.958,-0.215,0.871,1.753,1.221,93.332,206362,1
1690535470107,19.598423,9.893323,0.375043,-1.404297,-7.703079,-21.163101,-20.055981,-16.342082,0.03,0.957,-0.214,0.877,1.804,1.198,93.332,206363,1
1690535470111,18.559798,5.431377,0.684864,-5.003974,-12.215797,-22.019336,-20.45516,-12.444318,0.029,0.959,-0.216,0.906,1.777,1.253,93.332,206364,1
1690535470115,15.923827,-0.055187,-6.116304,-9.93131,-15.149418,-20.903558,-20.591601,-13.78665,0.029,0.959,-0.215,0.809,1.776,1.221,93.332,206365,1
1690535470119,16.236093,-3.917948,-7.681693,-12.798006,-16.942462,-23.310575,-14.176111,-9.842126,0.03,0.959,-0.214,0.911,1.83,1.322,93.332,206366,1
1690535470123,9.029269,-9.284185,-10.627118,-15.068038,-16.785912,-19.21831,-10.818979,-2.739496,0.027,0.96,-0.214,0.862,1.695,1.211,93.332,206367,1
1690535470127,4.622638,-10.550324,-14.63218,-18.02453,-13.033492,-20.484609,-8.258257,0.752472,0.032,0.958,-0.214,0.897,1.766,1.32,93.332,206368,1
1690535470131,1.945241,-16.106879,-18.226077,-19.388876,-18.653695,-18.027239,-4.757445,4.599755,0.028,0.959,-0.213,0.937,1.759,1.232,93.332,206369,1
1690535470135,-0.872329,-18.179008,-13.873226,-10.372671,-12.33159,-15.680678,-0.897863,6.482259,0.029,0.959,-0.214,0.947,1.764,1.223,93.332,206370,1
1690535470139,-6.521632,-19.633845,-19.453605,-11.953406,-10.104487,-5.127702,4.34494,13.024348,0.032,0.956,-0.213,0.999,1.733,1.197,93.332,206371,1
1690535470143,-7.322218,-19.573486,-13.085571,-12.032202,-1.569961,-4.194952,13.341892,17.700811,0.029,0.959,-0.214,0.82,1.784,1.212,93.332,206372,1
1690535470147,-10.215711,-19.973115,-7.630426,-7.254325,3.148454,-1.530788,13.637708,19.016608,0.027,0.961,-0.215,0.904,1.806,1.263,93.332,206373,1
1690535470151,-10.821467,-19.689137,-6.558991,-0.841861,7.292769,6.762541,13.542736,20.295367,0.031,0.958,-0.212,0.982,1.825,1.288,93.332,206374,1
1690535470155,-6.900547,-12.286929,-2.742807,0.754515,14.164391,9.270499,20.559221,14.975901,0.028,0.959,-0.214,0.918,1.774,1.138,93.332,206375,1
1690535470159,-6.859596,-7.512139,-0.933232,4.476161,15.826922,12.078786,23.268067,16.184462,0.029,0.959,-0.212,0.884,1.767,1.163,93.332,206376,1
1690535470163,-0.0993,-4.925683,-1.627006,12.454581,16.147221,15.786127,19.274235,14.20718,0.026,0.96,-0.211,0.88,1.681,1.154,93.332,206377,1
1690535470167,-0.522504,0.844893,7.610749,13.137757,21.380915,19.772066,19.289695,12.219722,0.031,0.958,-0.213,0.951,1.881,1.264,93.332,206378,1
1690535470171,6.611795,2.107679,9.363283,15.552322,24.501975,17.448469,19.663497,7.631817,0.028,0.959,-0.216,0.916,1.771,1.231,93.332,206379,1
1690535470175,8.534919,5.850143,13.783577,19.012434,21.65447,18.04524,14.596189,6.96146,0.03,0.959,-0.214,0.916,1.811,1.171,93.332,206380,1
1690535470179,17.535035,12.118651,15.197548,20.609935,20.086457,14.451662,6.095073,0.418864,0.028,0.961,-0.212,0.887,1.87,1.22,93.332,206381,1
1690535470183,18.391052,12.32832,16.811511,16.998824,17.593241,8.489247,1.751479,-4.158206,0.033,0.958,-0.215,0.968,1.746,1.235,93.332,206382,1
1690535470187,18.67194,16.855971,19.475763,15.410807,12.962567,4.881183,0.082773,-6.514059,0.03,0.959,-0.213,0.933,1.73,1.262,93.332,206383,1
1690535470191,22.326132,13.868622,11.132,14.35182,10.594344,-0.892899,-2.065133,-12.498756,0.028,0.959,-0.214,0.939,1.826,1.227,93.332,206384,1
1690535470195,22.968282,16.705275,14.568943,13.545849,5.32582,-4.924371,-6.495835,-10.490442,0.03,0.959,-0.214,0.948,1.769,1.189,93.332,206385,1
1690535470199,23.214405,13.617173,11.454181,6.507791,-2.005402,-11.892163,-12.453351,-17.998376,0.025,0.959,-0.214,0.939,1.758,1.318,93.332,206386,1
1690535470203,22.483493,10.221309,8.486573,1.066742,-4.494778,-17.801113,-15.167243,-16.019412,0.026,0.958,-0.215,0.978,1.88,1.249,93.332,206387,1
1690535470207,18.693054,12.482142,2.877709,0.138053,-8.073106,-18.312673,-15.826873,-11.752427,0.026,0.959,-0.215,0.871,1.862,1.152,93.332,206388,1
1690535470211,15.439951,4.842988,-1.777371,-6.843048,-11.803602,-22.35485,-18.528907,-14.228274,0.03,0.959,-0.215,0.875,1.825,1.125,93.332,206389,1
1690535470215,15.609544,3.596825,-8.799174,-9.155408,-11.695079,-25.056491,-16.384143,-8.977231,0.03,0.959,-0.215,0.989,1.801,1.147,93.332,206390,1
1690535470219,9.967576,-3.098681,-10.012419,-16.886645,-11.733979,-25.991077,-15.077271,-11.958297,0.031,0.959,-0.213,0.983,1.786,1.223,93.332,206391,1
1690535470223,8.494553,-5.354788,-11.148234,-14.721126,-18.046006,-26.536765,-9.190985,-6.755206,0.029,0.96,-0.214,1.046,1.893,1.225,93.332,206392,1
1690535470227,4.424899,-11.390738,-12.143607,-18.327482,-16.197058,-20.300471,-3.125022,-5.350897,0.026,0.956,-0.213,0.842,1.852,1.311,93.332,206393,1
1690535470231,1.746539,-14.454112,-18.805705,-19.013196,-16.387008,-19.714536,-3.77491,0.082405,0.027,0.958,-0.213,0.885,1.915,1.252,93.332,206394,1
1690535470235,-6.395074,-18.72153,-17.297402,-10.859645,-11.836153,-9.945061,3.078642,6.844277,0.029,0.958,-0.214,0.864,1.764,1.245,93.332,206395,1
1690535470239,-6.358951,-21.806922,-17.535905,-12.236831,-7.535865,-8.509486,6.669556,10.63145,0.033,0.961,-0.214,0.96,1.829,1.222,93.332,206396,1
1690535470243,-11.482747,-18.408385,-18.035189,-7.596343,-2.700904,0.0065,10.878984,12.669892,0.026,0.959,-0.213,0.899,1.783,1.204,93.332,206397,1
1690535470247,-8.697644,-15.305336,-11.466319,-10.507907,2.450901,2.283292,17.112996,18.804992,0.029,0.96,-0.214,0.88,1.832,1.228,93.332,206398,1
1690535470251,-12.872414,-14.219082,-11.124839,-2.028863,4.56057,9.582089,18.362843,16.724514,0.028,0.961,-0.214,0.943,1.779,1.242,93.332,206399,1
1690535470255,-9.45583,-10.344319,-2.207102,0.007012,7.021474,10.441657,18.175955,19.556589,0.028,0.96,-0.213,0.864,1.722,1.259,93.332,206400,1
1690535470259,-6.461401,-6.41628,1.069493,5.921762,12.892834,18.674237,19.651847,14.928957,0.031,0.957,-0.215,0.957,1.842,1.211,93.332,206401,1
1690535470263,-3.600022,-0.268527,1.925561,12.273875,14.833569,17.912117,20.013592,10.333415,0.031,0.96,-0.214,0.947,1.886,1.29,93.332,206402,1
1690535470267,-1.664812,5.785777,7.497655,12.877481,14.293359,17.947322,15.544234,9.016967,0.03,0.959,-0.214,1.011,1.831,1.302,93.332,206403,1
1690535470271,3.613843,6.924708,12.271211,19.85289,10.932606,19.165936,9.966169,2.711547,0.025,0.958,-0.213,0.985,1.796,1.225,93.332,206404,1
1690535470275,3.047471,12.85053,14.434746,16.317543,14.951855,16.415611,10.776166,1.653219,0.03,0.958,-0.213,0.97,1.715,1.287,93.332,206405,1
1690535470279,10.839944,18.50302,18.600228,15.867332,15.025328,11.468415,6.642601,-4.165212,0.03,0.958,-0.214,0.905,1.801,1.181,93.332,206406,1
1690535470283,13.374499,14.501204,21.06933,11.00295,11.32271,11.312387,2.723302,-6.410109,0.033,0.959,-0.212,0.884,1.843,1.187,93.332,206407,1
1690535470287,19.824109,18.450257,15.891347,15.249472,6.633606,4.496723,0.747009,-14.261092,0.03,0.958,-0.215,1.047,1.736,1.156,93.332,206408,1
1690535470291,18.050607,21.735086,17.724793,14.083457,3.830067,3.281779,-4.461938,-14.02584,0.031,0.96,-0.214,1.048,1.792,1.238,93.332,206409,1
1690535470295,19.496208,18.031493,11.161944,8.985612,-2.488647,-0.727818,-6.758715,-18.956484,0.029,0.959,-0.213,0.891,1.836,1.267,93.332,206410,1
1690535470299,15.992575,19.00941,9.459379,5.207081,-6.0017,-5.721021,-12.755795,-18.346002,0.029,0.958,-0.213,0.98,1.724,1.219,93.332,206411,1
1690535470303,15.061117,15.640364,5.354284,0.770027,-8.364987,-10.391834,-14.992134,-19.229788,0.027,0.96,-0.215,0.933,1.735,1.189,93.332,206412,1
1690535470307,11.576467,13.999374,1.042635,-5.451348,-13.244107,-11.275933,-17.131794,-18.002016,0.031,0.961,-0.213,1.01,1.846,1.253,93.332,206413,1
1690535470311,11.714837,4.463647,-0.662592,-9.213234,-12.85258,-15.111863,-16.323188,-16.030999,0.032,0.96,-0.214,0.985,1.77,1.201,93.332,206414,1
1690535470315,4.649432,5.083388,-4.34103,-15.943669,-16.795139,-15.764425,-17.861952,-14.346314,0.032,0.959,-0.214,0.953,1.795,1.132,93.332,206415,1
1690535470319,0.802721,-4.604385,-7.267764,-14.3911,-19.359499,-15.998128,-15.622692,-10.570777,0.027,0.959,-0.215,0.966,1.79,1.132,93.332,206416,1
1690535470323,-6.63879,-6.597775,-7.823452,-19.681866,-20.305208,-15.827888,-11.285163,-7.079231,0.027,0.959,-0.214,0.981,1.834,1.256,93.332,206417,1
1690535470327,-11.319088,-8.44597,-11.88815,-17.813825,-22.050553,-11.423824,-10.476131,1.222222,0.03,0.958,-0.212,0.941,1.77,1.178,93.332,206418,1
1690535470331,-14.89086,-11.799301,-14.742976,-18.080922,-18.06128,-8.896862,-5.389134,5.829747,0.027,0.959,-0.213,0.974,1.733,1.2,93.332,206419,1
1690535470335,-13.878459,-15.052169,-16.424652,-17.665037,-11.987022,-7.13237,0.733817,11.456,0.027,0.958,-0.215,0.921,1.789,1.175,93.332,206420,1
1690535470339,-16.519025,-17.143453,-15.82056,-15.323438,-11.77152,-3.169973,3.359634,15.253784,0.03,0.959,-0.213,0.987,1.851,1.191,93.332,206421,1
1690535470343,-18.887235,-19.828256,-14.125899,-10.842274,-8.380381,1.653511,9.339249,19.805581,0.029,0.959,-0.215,0.921,1.843,1.186,93.332,206422,1
1690535470347,-22.081274,-17.280451,-11.538506,-9.865433,-3.858656,7.97461,12.262102,16.948265,0.027,0.959,-0.213,0.892,1.836,1.207,93.332,206423,1
1690535470351,-22.264846,-17.908885,-9.791323,-1.07451,-0.109601,10.598092,13.919513,19.679691,0.027,0.96,-0.215,0.957,1.738,1.228,93.332,206424,1
1690535470355,-17.835839,-13.833806,-10.477932,3.687685,4.581219,16.788397,16.511583,19.165992,0.03,0.959,-0.213,0.907,1.836,1.129,93.332,206425,1
1690535470359,-18.424614,-12.229592,-2.721434,7.586031,4.630709,17.052252,12.766832,18.426192,0.024,0.958,-0.213,0.998,1.753,1.195,93.332,206426,1
1690535470363,-17.661472,-5.405685,-0.31517,11.380259,11.676657,22.724512,14.916669,15.850384,0.033,0.96,-0.214,0.942,1.794,1.104,93.331,206427,1
1690535470367,-12.029689,2.378016,6.542031,16.09159,11.472441,21.923145,11.425964,13.591831,0.027,0.958,-0.214,0.974,1.845,1.243,93.331,206428,1
1690535470371,-6.086741,3.513035,12.235654,17.927588,12.941759,22.507475,9.042149,11.165669,0.029,0.959,-0.212,1.011,1.758,1.096,93.331,206429,1
1690535470375,-3.02246,7.173116,13.067215,19.4427,10.827346,22.076541,2.603672,1.204168,0.028,0.96,-0.216,0.904,1.808,1.235,93.331,206430,1
1690535470379,0.336439,16.498952,17.281507,18.741867,10.495526,21.098493,1.174088,-1.395986,0.029,0.96,-0.214,1.051,1.83,1.209,93.331,206431,1
1690535470383,0.952553,12.256741,16.33562,19.826016,7.789265,12.952825,-0.570443,-1.4617,0.033,0.957,-0.215,0.985,1.783,1.168,93.331,206432,1
1690535470387,8.688394,17.949219,15.939659,18.26825,5.951664,9.857258,-5.29149,-8.871991,0.032,0.96,-0.215,0.892,1.691,1.159,93.331,206433,1
1690535470391,8.467054,21.104438,17.33946,12.973552,2.659674,3.236695,-8.300109,-11.612222,0.028,0.96,-0.212,1.035,1.786,1.15,93.331,206434,1
1690535470395,12.427768,13.756136,11.57671,6.472543,-4.445981,0.388285,-15.363811,-13.55029,0.033,0.958,-0.215,1.077,1.822,1.29,93.331,206435,1
1690535470399,10.931248,14.924243,8.939677,4.514024,-5.358838,-2.526594,-17.479257,-16.308449,0.029,0.959,-0.213,1.021,1.852,1.175,93.331,206436,1
1690535470403,13.93976,13.481668,6.648598,1.775141,-9.788903,-10.996616,-20.545899,-17.456205,0.028,0.96,-0.216,0.987,1.782,1.17,93.331,206437,1
1690535470407,12.858281,6.111713,2.649866,-6.689897,-13.856084,-10.275196,-19.874874,-18.313292,0.029,0.959,-0.213,0.951,1.75,1.119,93.331,206438,1
1690535470411,6.85744,8.387894,-0.367871,-8.961856,-16.015237,-12.281076,-18.543074,-15.402676,0.033,0.96,-0.213,1.052,1.736,1.139,93.331,206439,1
1690535470415,-0.160354,0.941698,-4.782631,-17.34448,-16.28389,-16.162088,-19.25121,-12.036522,0.032,0.96,-0.213,0.983,1.748,1.196,93.331,206440,1
1690535470419,-5.184538,-4.407538,-7.52475,-17.855319,-14.131938,-16.55403,-15.524292,-9.095169,0.028,0.96,-0.212,0.985,1.71,1.158,93.331,206441,1
1690535470423,-8.064769,-12.205528,-10.848845,-21.505112,-19.523381,-15.821154,-11.45651,-7.313403,0.032,0.959,-0.213,1.018,1.803,1.172,93.331,206442,1
1690535470427,-18.454616,-14.140866,-20.71593,-22.222163,-18.682958,-10.380033,-8.832097,0.401886,0.032,0.96,-0.213,1.006,1.849,1.206,93.331,206443,1
1690535470431,-15.510964,-13.534535,-16.45419,-21.585738,-12.757573,-5.37136,-3.184652,2.752975,0.025,0.958,-0.212,1.06,1.796,1.132,93.331,206444,1
1690535470435,-20.213197,-19.324741,-18.772811,-18.986154,-11.655155,-5.392265,-0.292089,5.895765,0.033,0.959,-0.215,1.047,1.854,1.209,93.331,206445,1
1690535470439,-22.34998,-20.888453,-15.869019,-19.760541,-13.170091,1.901628,5.631535,10.50531,0.031,0.959,-0.212,0.984,1.707,1.147,93.331,206446,1
1690535470443,-21.600292,-19.93357,-16.995071,-16.170838,-8.649764,3.946047,7.894411,13.096057,0.031,0.958,-0.212,0.993,1.811,1.174,93.331,206447,1
1690535470447,-21.67163,-17.119209,-11.340292,-12.050113,-7.368815,10.1728,13.440023,18.135936,0.031,0.958,-0.214,0.971,1.726,1.243,93.331,206448,1
1690535470451,-20.703695,-14.291594,-9.113571,-7.147252,2.287392,15.646567,15.226192,15.727243,0.031,0.96,-0.216,1.092,1.726,1.185,93.331,206449,1
1690535470455,-19.848349,-14.602656,-4.264178,-1.11417,6.192441,19.003572,16.459944,20.039441,0.026,0.96,-0.214,1.079,1.881,1.136,93.331,206450,1
1690535470459,-16.241237,-8.409812,1.673472,0.555586,5.078406,15.64006,20.255554,16.364975,0.03,0.96,-0.214,1.034,1.807,1.101,93.331,206451,1
1690535470463,-12.884531,-2.995402,3.457327,6.116278,8.177352,21.936111,18.792972,13.115995,0.028,0.96,-0.213,1.03,1.753,1.093,93.331,206452,1
1690535470467,-9.169384,1.495246,10.272042,5.982162,7.400984,22.140687,15.104145,11.237494,0.028,0.959,-0.216,0.993,1.809,1.112,93.331,206453,1
1690535470471,-3.125363,6.09007,8.764158,12.223896,12.019121,21.101372,14.016092,5.428411,0.023,0.96,-0.213,1.122,1.831,1.178,93.331,206454,1
1690535470475,0.985882,10.534989,10.087768,10.943424,11.879211,20.005065,11.584929,1.742469,0.027,0.959,-0.214,1.014,1.847,1.201,93.331,206455,1
1690535470479,2.740949,15.756441,15.73956,11.726675,11.721286,13.169578,5.546384,-3.926033,0.03,0.96,-0.213,1.026,1.708,1.07,93.331,206456,1
1690535470483,4.797934,15.561838,18.295289,11.948175,8.800834,9.807236,2.469858,-6.014544,0.03,0.959,-0.213,1.076,1.837,1.159,93.331,206457,1
1690535470487,11.476506,18.259739,17.286295,10.011669,9.925358,7.015255,-1.807046,-15.093825,0.029,0.96,-0.214,0.972,1.786,1.185,93.331,206458,1
1690535470491,14.628348,19.774156,15.351882,7.060256,6.763045,-0.319962,-9.29148,-18.009255,0.029,0.959,-0.213,1.073,1.903,1.085,93.331,206459,1
1690535470495,12.688663,21.301992,12.87746,2.725042,-0.056925,-2.40952,-8.255969,-18.608934,0.031,0.959,-0.212,1.047,1.837,1.114,93.331,206460,1
1690535470499,13.9473,14.610127,11.139473,-1.011838,0.703343,-8.63647,-8.313037,-18.626836,0.027,0.959,-0.213,0.916,1.665,1.133,93.331,206461,1
1690535470503,9.811643,17.955039,6.62395,-5.628388,-9.464183,-10.333851,-12.955114,-18.807658,0.028,0.96,-0.214,1.056,1.867,1.158,93.331,206462,1
1690535470507,9.288157,13.83154,3.708748,-7.034196,-10.842336,-16.876372,-13.255918,-20.059312,0.029,0.958,-0.212,1.005,1.708,1.112,93.331,206463,1
1690535470511,9.705553,10.325319,0.636845,-14.916736,-16.948276,-16.599804,-13.703805,-20.123902,0.029,0.96,-0.213,1.017,1.821,1.155,93.331,206464,1
1690535470515,5.604641,5.096071,-4.416775,-17.531917,-20.301565,-18.288911,-15.97111,-18.630941,0.03,0.96,-0.211,1.046,1.758,1.197,93.331,206465,1
1690535470519,-0.474401,0.544962,-7.058935,-17.837219,-18.568887,-18.431294,-15.750574,-12.639229,0.028,0.961,-0.216,1.06,1.789,1.073,93.331,206466,1
1690535470523,-5.727299,-5.688585,-10.896724,-23.120848,-19.599895,-15.16399,-8.765673,-7.079353,0.033,0.958,-0.214,0.996,1.774,1.076,93.331,206467,1
1690535470527,-11.99933,-8.568991,-13.618752,-20.725214,-16.902062,-16.539441,-9.169002,0.127978,0.031,0.96,-0.215,1.036,1.884,1.084,93.331,206468,1
1690535470531,-14.05691,-10.939049,-16.418876,-17.666174,-14.699673,-11.494457,-4.328136,2.497809,0.034,0.96,-0.213,1.057,1.753,1.099,93.331,206469,1
1690535470535,-17.264766,-12.847575,-14.366866,-16.859273,-12.808601,-7.406946,1.350652,8.617364,0.031,0.958,-0.212,1.067,1.829,1.129,93.331,206470,1
1690535470539,-19.151458,-13.891903,-14.649048,-15.877956,-6.033877,-1.069443,2.660722,10.062909,0.033,0.96,-0.214,1.033,1.812,1.178,93.331,206471,1
1690535470543,-18.723477,-14.964848,-12.663039,-13.702127,-8.397366,-0.197149,15.091659,11.664626,0.03,0.96,-0.214,1.059,1.854,1.106,93.331,206472,1
1690535470547,-18.345237,-17.356394,-12.470613,-12.191308,-1.035313,4.97311,16.017774,16.584228,0.03,0.958,-0.213,1.028,1.817,1.162,93.331,206473,1
1690535470551,-18.156919,-17.821836,-7.098524,-5.626081,0.939251,7.150314,18.287326,18.944689,0.028,0.959,-0.215,1.096,1.843,1.153,93.331,206474,1
1690535470555,-18.60942,-13.689334,-5.140651,-4.13692,6.999017,13.347135,23.028565,20.003502,0.028,0.959,-0.213,1.15,1.82,1.107,93.331,206475,1
1690535470559,-14.461008,-9.204678,-2.472128,3.554826,11.55327,15.154154,24.659346,17.412764,0.028,0.96,-0.214,1.027,1.791,1.172,93.331,206476,1
1690535470563,-12.750836,-4.10146,0.04184,4.673512,13.970612,18.240157,24.105714,17.290043,0.033,0.961,-0.212,1.07,1.823,1.186,93.331,206477,1
1690535470567,-6.040258,-1.160479,2.96858,9.383163,14.309155,19.802364,24.319044,10.521332,0.029,0.96,-0.212,1.123,1.86,1.084,93.331,206478,1
1690535470571,0.828726,2.935367,8.389465,13.411406,19.011629,18.513015,18.592639,8.305061,0.029,0.959,-0.215,1.073,1.858,1.205,93.331,206479,1
1690535470575,6.041129,6.634589,13.006308,15.820859,18.149533,13.911495,13.643804,7.955496,0.027,0.959,-0.214,1.018,1.825,1.158,93.331,206480,1
1690535470579,12.64262,10.029875,17.933472,16.547303,15.021688,7.545938,11.380858,1.775161,0.027,0.959,-0.214,1.121,1.834,1.095,93.331,206481,1
1690535470583,16.034044,12.15017,16.830408,14.250903,10.475448,1.578494,5.919257,-3.120311,0.03,0.957,-0.214,1.078,1.71,1.15,93.331,206482,1
1690535470587,18.713893,13.742,18.810377,15.380456,9.850504,3.192086,-3.124491,-7.953162,0.027,0.96,-0.214,1.078,1.848,1.121,93.331,206483,1
1690535470591,21.776952,16.044723,17.81086,9.936114,6.875691,-6.3566,-3.608774,-10.810219,0.031,0.958,-0.215,1.162,1.787,1.137,93.331,206484,1
1690535470595,18.426559,15.760743,14.949931,9.577111,7.223149,-8.609198,-5.877742,-11.29621,0.03,0.96,-0.213,1.016,1.815,1.17,93.331,206485,1
1690535470599,21.489975,14.70164,13.495065,6.776299,0.492164,-13.704701,-10.186787,-13.879125,0.029,0.959,-0.213,1.103,1.726,1.122,93.331,206486,1
1690535470603,18.461633,12.898753,7.879633,-2.172832,-5.767383,-15.052636,-12.814703,-11.233586,0.03,0.96,-0.213,1.085,1.739,1.181,93.331,206487,1
1690535470607,16.560436,7.586793,4.292342,-1.629792,-6.45175,-20.803086,-13.152306,-17.445558,0.027,0.958,-0.214,1.091,1.763,1.129,93.331,206488,1
1690535470611,10.179848,4.66553,2.9828,-5.873841,-9.713971,-19.356389,-15.614556,-11.457329,0.031,0.96,-0.213,1.065,1.881,1.14,93.331,206489,1
1690535470615,8.011069,2.549736,-7.643198,-11.5553,-12.978025,-24.573874,-16.34501,-10.71525,0.031,0.959,-0.211,1.027,1.858,1.083,93.331,206490,1
1690535470619,3.718865,-2.49498,-8.818368,-11.618774,-11.565183,-23.019947,-13.691505,-7.571061,0.029,0.96,-0.212,1.136,1.786,1.027,93.331,206491,1
1690535470623,-1.636421,-8.598504,-17.906675,-15.381631,-14.708793,-20.572558,-12.941549,-6.641908,0.033,0.959,-0.214,1.041,1.781,1.078,93.331,206492,1
1690535470627,-5.189654,-8.084332,-14.333869,-15.327362,-12.344333,-20.76611,-10.556539,-2.291601,0.032,0.96,-0.213,1.051,1.802,1.12,93.331,206493,1
1690535470631,-12.605966,-11.827291,-16.344596,-18.11535,-14.339547,-13.847441,-3.874122,1.774059,0.029,0.961,-0.213,1.122,1.82,1.09,93.331,206494,1
1690535470635,-15.629237,-14.97137,-18.674606,-16.01782,-5.698035,-11.708512,-1.17751,6.067732,0.029,0.96,-0.213,1.048,1.744,1.053,93.331,206495,1
1690535470639,-23.513458,-19.547635,-19.284939,-10.9687,-2.870886,-6.519544,5.437591,11.250776,0.031,0.958,-0.213,1.038,1.883,1.057,93.331,206496,1
1690535470643,-24.620086,-19.697988,-15.727376,-8.841291,-2.05496,0.788172,7.4232,12.4526,0.028,0.959,-0.214,0.966,1.842,1.06,93.331,206497,1
1690535470647,-19.42006,-16.755843,-12.656765,-4.946576,2.937968,4.253072,11.151411,17.68201,0.03,0.96,-0.212,1.112,1.819,1.077,93.331,206498,1
1690535470651,-20.787164,-14.563492,-6.46332,3.130475,10.727459,3.382467,12.323023,20.517672,0.028,0.96,-0.215,1.107,1.803,1.139,93.331,206499,1
1690535470655,-18.740828,-13.459492,-8.629389,8.337985,15.12671,13.981849,15.337266,18.409673,0.034,0.961,-0.214,1.047,1.819,1.09,93.331,206500,1
1690535470659,-14.354989,-11.854032,0.455068,13.061779,16.641532,10.436734,15.752235,17.678531,0.032,0.958,-0.211,1.127,1.856,1.166,93.331,206501,1
1690535470663,-11.061996,-4.712849,3.054194,13.542704,20.077785,14.144222,16.97282,15.888098,0.03,0.96,-0.213,1.069,1.809,1.135,93.331,206502,1
1690535470667,-10.393065,-0.096584,6.686308,20.867162,22.257262,15.303541,16.893825,12.074138,0.031,0.958,-0.213,1.172,1.785,1.098,93.331,206503,1
1690535470671,0.478997,-1.83985,10.84498,23.118769,23.613324,12.060418,10.902853,5.6757,0.03,0.958,-0.215,1.007,1.826,0.985,93.331,206504,1
1690535470675,2.198343,5.925875,13.486551,25.825966,20.532993,10.526767,6.197877,3.754552,0.031,0.961,-0.213,1.115,1.876,1.12,93.331,206505,1
1690535470679,7.984863,7.977412,15.997747,25.721513,24.41493,7.357929,3.058549,-0.062575,0.031,0.959,-0.214,1.078,1.77,1.122,93.331,206506,1
1690535470683,12.504758,13.060608,16.038844,26.1738,21.808881,8.475331,-4.585189,-6.789511,0.032,0.959,-0.213,1.087,1.9,1.07,93.331,206507,1
1690535470687,15.952228,18.936354,13.427054,19.96108,17.159058,-0.302384,-9.089278,-10.566904,0.033,0.96,-0.214,1.137,1.762,1.073,93.331,206508,1
1690535470691,16.696441,18.229439,14.337471,20.945418,15.502901,-1.39318,-11.677285,-13.471208,0.028,0.958,-0.213,1.076,1.802,1.071,93.331,206509,1
1690535470695,18.591911,17.230401,15.541077,18.927031,5.983834,-6.866136,-13.319412,-16.36601,0.031,0.959,-0.213,1.184,1.757,1.106,93.331,206510,1
1690535470699,22.688873,18.955951,10.66154,13.960871,5.84203,-8.127439,-18.601813,-19.423578,0.032,0.96,-0.214,1.095,1.722,1.133,93.331,206511,1
1690535470703,17.603282,18.926659,9.205918,8.407171,1.567139,-14.938117,-18.99101,-19.608145,0.029,0.96,-0.213,1.136,1.904,1.157,93.331,206512,1
1690535470707,17.824115,12.264577,3.322859,5.718389,-3.057233,-16.728732,-17.509183,-19.19426,0.032,0.96,-0.214,1.043,1.763,1.043,93.331,206513,1
1690535470711,13.288689,10.868298,-1.748239,-3.090405,-9.694516,-18.056303,-19.769992,-15.565289,0.029,0.956,-0.214,1.047,1.763,1.07,93.331,206514,1
1690535470715,10.472231,4.624612,-5.138399,-5.160107,-9.701268,-21.991165,-20.321935,-17.473447,0.032,0.96,-0.213,1.091,1.846,1.156,93.331,206515,1
1690535470719,5.377192,-1.352175,-6.641905,-8.122043,-8.235813,-18.080623,-15.101764,-11.309462,0.03,0.96,-0.212,1.15,1.823,1.169,93.331,206516,1
1690535470723,1.546315,-5.772329,-10.374443,-9.516042,-10.358843,-18.819916,-14.345047,-6.682698,0.031,0.96,-0.212,1.146,1.807,1.053,93.331,206517,1
1690535470727,-4.535489,-9.049057,-11.729684,-13.06355,-9.807135,-15.777618,-10.9288,0.683648,0.032,0.961,-0.214,1.056,1.827,1.068,93.331,206518,1
1690535470731,-10.868924,-9.734224,-11.039994,-10.790006,-6.061955,-8.712465,-4.013041,-1.464955,0.033,0.959,-0.213,1.19,1.827,1.037,93.331,206519,1
1690535470735,-12.850796,-12.186861,-16.930279,-9.73642,-7.615539,-5.829031,-0.724773,5.018843,0.031,0.959,-0.213,1.042,1.84,1.106,93.331,206520,1
1690535470739,-14.225812,-12.239881,-17.976986,-5.341072,2.453191,-1.157863,5.116896,6.29643,0.03,0.96,-0.213,1.035,1.785,1.098,93.331,206521,1
1690535470743,-19.399403,-12.74958,-17.401861,-5.106662,2.68655,1.493847,8.986336,12.451771,0.028,0.96,-0.213,1.212,1.827,1.081,93.331,206522,1
1690535470747,-13.810507,-12.953208,-14.730393,0.882961,4.375212,6.277193,12.994789,14.578405,0.029,0.962,-0.214,1.112,1.811,1.148,93.331,206523,1
1690535470751,-10.746659,-11.77226,-8.019963,3.242123,9.400718,9.766194,16.225762,12.770729,0.031,0.96,-0.214,1.127,1.848,1.048,93.331,206524,1
1690535470755,-12.426448,-10.813413,-6.985602,8.792578,15.24022,11.007563,12.060557,18.67778,0.034,0.959,-0.213,1.107,1.808,1.021,93.331,206525,1
1690535470759,-10.853425,-4.5999,-2.32147,10.658729,16.617966,14.508213,13.423686,14.51107,0.028,0.959,-0.212,0.981,1.804,1.15,93.331,206526,1
1690535470763,-3.372718,-3.153943,2.188056,15.457305,20.190379,17.448925,11.490655,10.725707,0.029,0.96,-0.213,1.102,1.766,1.033,93.331,206527,1
1690535470767,-1.829085,0.050288,4.732494,18.302557,18.606237,17.582177,13.155174,7.373991,0.032,0.96,-0.213,1.166,1.764,1.144,93.331,206528,1
1690535470771,5.284312,2.675914,7.627675,23.038877,20.775853,20.747531,10.604898,5.160023,0.033,0.962,-0.214,0.994,1.856,1.072,93.331,206529,1
1690535470775,9.549309,6.277578,14.802578,24.126773,21.0946,13.137095,3.660145,6.612035,0.031,0.96,-0.213,1.097,1.784,1.027,93.331,206530,1
1690535470779,13.116538,14.073935,20.086281,26.809629,17.0417,14.715035,4.461749,-3.048093,0.032,0.96,-0.211,1.128,1.814,1.072,93.331,206531,1
1690535470783,16.556109,13.742496,19.304711,25.363252,20.170396,7.964953,-1.604481,-5.347421,0.033,0.96,-0.212,1.153,1.781,1.025,93.331,206532,1
1690535470787,19.480858,16.737976,19.007986,21.525697,9.794626,9.160596,-6.293337,-12.904613,0.025,0.961,-0.212,1.105,1.88,1.044,93.331,206533,1
1690535470791,21.897125,15.051598,20.640334,16.797381,8.514316,0.709728,-12.155202,-12.078593,0.031,0.959,-0.214,1.08,1.809,1.128,93.331,206534,1
1690535470795,21.831767,14.574652,13.479702,10.549075,6.192693,-1.530088,-12.25309,-13.158822,0.03,0.96,-0.213,1.117,1.753,1.061,93.331,206535,1
1690535470799,21.879913,10.218357,15.469505,9.888943,2.669908,-6.934858,-16.626386,-12.900451,0.028,0.961,-0.214,1.201,1.845,1.043,93.331,206536,1
1690535470803,25.590166,10.960824,8.736572,4.168307,-1.011064,-5.438097,-18.542326,-13.445897,0.028,0.959,-0.212,1.158,1.793,1.045,93.331,206537,1
1690535470807,22.76033,8.402148,4.8518,-1.292566,-8.35586,-10.086981,-19.593025,-16.957918,0.033,0.96,-0.212,1.088,1.763,1.037,93.331,206538,1
1690535470811,18.975149,8.279773,-2.978644,-7.10643,-10.735353,-11.919632,-14.338507,-7.951498,0.03,0.96,-0.214,1.158,1.708,1.132,93.331,206539,1
1690535470815,14.646438,4.177879,-5.654042,-9.695571,-12.901922,-13.710847,-16.766348,-7.900208,0.03,0.959,-0.212,1.156,1.773,1.13,93.331,206540,1
1690535470819,9.252309,0.502852,-8.082284,-9.906404,-12.617727,-12.317642,-13.5851,-5.413749,0.031,0.959,-0.214,1.098,1.856,1.048,93.331,206541,1
1690535470823,3.899489,-5.64181,-9.900143,-14.149614,-15.664191,-12.371552,-12.230866,-3.890203,0.032,0.96,-0.214,1.184,1.86,1.039,93.331,206542,1
1690535470827,-3.434866,-12.452673,-16.652051,-13.842209,-12.883617,-7.541926,-7.906078,-0.019997,0.03,0.959,-0.212,1.244,1.767,1.114,93.331,206543,1
1690535470831,-4.710302,-13.213442,-16.323913,-19.125105,-9.883766,-5.574499,-4.123724,8.24775,0.028,0.959,-0.211,1.1,1.836,1.025,93.331,206544,1
1690535470835,-8.769667,-17.19045,-17.401041,-14.57523,-14.155447,-4.628239,4.51054,9.700214,0.029,0.961,-0.215,1.113,1.811,1.058,93.331,206545,1
1690535470839,-9.178055,-14.690527,-18.245988,-11.082676,-10.209672,7.356214,4.75878,18.13189,0.031,0.96,-0.213,1.135,1.787,1.114,93.331,206546,1
1690535470843,-15.32645,-16.806609,-15.815457,-9.207776,-5.789144,7.661813,7.878618,17.87368,0.03,0.961,-0.213,1.166,1.816,1.092,93.331,206547,1
1690535470847,-14.64528,-18.905831,-11.379018,-6.521118,-1.463033,13.356746,13.976346,18.311267,0.029,0.959,-0.213,1.093,1.849,0.973,93.331,206548,1
1690535470851,-9.921511,-12.523671,-12.488068,-5.988539,2.529468,13.76877,14.907529,18.376674,0.032,0.96,-0.211,1.122,1.823,1.057,93.331,206549,1
1690535470855,-11.690084,-11.17822,-6.920979,2.374817,9.245596,17.420198,18.229014,21.310461,0.03,0.96,-0.213,1.178,1.857,1.084,93.331,206550,1
1690535470859,-8.3133,-8.795381,-1.556138,0.681546,8.7655,16.89725,22.010111,17.368462,0.028,0.958,-0.214,1.111,1.872,1.064,93.331,206551,1
1690535470863,-3.038249,-4.334869,4.830107,10.665008,8.545892,21.765393,26.176245,15.252896,0.026,0.961,-0.216,1.158,1.777,1.031,93.331,206552,1
1690535470867,-1.140807,-1.93606,4.636228,8.630706,14.000125,19.064645,14.647467,12.208347,0.034,0.959,-0.216,1.186,1.741,1.062,93.331,206553,1
1690535470871,3.627261,1.059441,10.630053,9.972034,13.544145,17.880057,16.163069,10.035014,0.026,0.96,-0.213,1.125,1.756,1.006,93.331,206554,1
1690535470875,7.92032,10.661608,12.645847,12.476154,10.832502,14.304824,16.707326,2.203031,0.026,0.96,-0.213,1.225,1.853,1.064,93.331,206555,1
1690535470879,14.186303,9.387141,16.996794,16.439353,10.683439,14.427386,10.290657,-4.107705,0.032,0.959,-0.213,1.178,1.769,0.982,93.331,206556,1
1690535470883,19.327837,11.119068,18.507726,10.757667,6.633895,10.518537,5.635222,-6.542914,0.03,0.961,-0.211,1.148,1.751,1.061,93.331,206557,1
1690535470887,20.602332,16.594351,18.882641,10.94309,3.151165,8.396658,0.131165,-11.114574,0.03,0.96,-0.212,1.145,1.794,1.016,93.331,206558,1
1690535470891,24.70986,12.087788,18.853435,7.843101,1.085573,3.310444,-2.932944,-15.730027,0.031,0.961,-0.212,1.132,1.816,0.997,93.331,206559,1
1690535470895,28.869622,14.381015,11.987812,3.31155,-5.242224,-0.922751,-7.59967,-19.433538,0.03,0.963,-0.212,1.115,1.748,1.118,93.331,206560,1
1690535470899,22.006504,10.723376,12.314772,-3.154411,-6.979808,-3.424666,-10.856268,-16.841062,0.032,0.96,-0.214,1.166,1.75,1.028,93.331,206561,1
1690535470903,21.983241,13.063427,7.026194,-7.217634,-13.751804,-6.226609,-13.120275,-20.642418,0.031,0.961,-0.211,1.105,1.809,0.956,93.331,206562,1
1690535470907,23.14621,7.3189,2.25666,-12.274223,-16.060946,-11.592102,-16.884054,-20.016803,0.03,0.96,-0.214,1.199,1.764,1.029,93.331,206563,1
1690535470911,18.645972,3.80907,-3.0464,-13.367884,-21.216224,-12.01576,-19.234481,-13.294928,0.028,0.959,-0.212,1.173,1.752,0.986,93.331,206564,1
1690535470915,20.674059,1.656851,-7.061466,-20.319684,-25.113673,-9.753897,-17.402218,-12.884388,0.029,0.96,-0.21,1.099,1.831,1.056,93.331,206565,1
1690535470919,14.745503,-1.137332,-6.853153,-21.897984,-19.726916,-13.000629,-8.107116,-11.648608,0.029,0.962,-0.213,1.204,1.811,1.066,93.331,206566,1
1690535470923,5.432515,-2.133126,-15.908056,-24.140141,-27.793219,-7.72717,-8.971804,-6.339837,0.028,0.959,-0.214,1.153,1.793,1.03,93.331,206567,1
1690535470927,0.951662,-6.849624,-15.54792,-26.036437,-24.053565,-7.383667,-9.069534,-2.825056,0.027,0.958,-0.214,1.194,1.73,1.106,93.331,206568,1
1690535470931,-2.908558,-11.75421,-15.549243,-26.445704,-18.125606,-4.136874,-5.973202,-2.140231,0.03,0.961,-0.215,1.204,1.79,0.922,93.331,206569,1
1690535470935,-6.922596,-17.447456,-20.287084,-21.091601,-17.03248,-2.240776,5.567839,5.308187,0.03,0.962,-0.212,1.22,1.89,1.029,93.331,206570,1
1690535470939,-9.763779,-12.299663,-12.553968,-21.512557,-15.154454,1.951399,3.259697,7.838446,0.03,0.96,-0.215,1.098,1.886,1.118,93.331,206571,1
1690535470943,-14.303128,-16.911783,-20.467658,-22.503142,-13.785778,8.489658,11.148509,14.954857,0.031,0.961,-0.213,1.242,1.78,0.992,93.331,206572,1
1690535470947,-15.580258,-12.697359,-14.014433,-14.307729,-10.599261,10.801936,13.639571,17.681162,0.032,0.96,-0.214,1.159,1.821,1.057,93.331,206573,1
1690535470951,-15.499685,-8.686881,-7.643545,-12.245935,-5.750352,11.772512,16.939257,18.496214,0.032,0.961,-0.212,1.062,1.816,1.023,93.33,206574,1
1690535470955,-20.637961,-7.437084,-5.217277,-6.825417,-1.097088,13.307537,19.32328,16.137894,0.031,0.959,-0.214,1.158,1.764,0.982,93.33,206575,1
1690535470959,-14.003482,-1.753443,-3.341425,-4.03252,0.033368,13.847918,19.253246,16.901298,0.032,0.96,-0.211,1.2,1.818,1.012,93.33,206576,1
1690535470963,-8.734938,-3.352367,3.245244,7.106907,6.856131,15.517723,16.190582,12.771667,0.032,0.96,-0.213,1.041,1.838,0.978,93.33,206577,1
1690535470967,-1.257252,1.777498,6.307354,6.005415,5.706818,19.660804,16.995296,10.305983,0.033,0.959,-0.214,1.255,1.756,0.951,93.33,206578,1
1690535470971,-1.163937,6.790648,10.781581,10.286376,8.514903,18.597859,10.434866,6.6379,0.028,0.962,-0.212,1.133,1.787,1.088,93.33,206579,1
1690535470975,0.742732,15.024562,17.539903,13.324933,7.327734,11.206371,8.338714,5.069095,0.032,0.96,-0.211,1.248,1.837,1.007,93.33,206580,1
1690535470979,6.250656,13.888219,17.693858,12.367845,7.775692,10.837336,6.044306,-4.577022,0.034,0.961,-0.212,1.221,1.757,0.927,93.33,206581,1
1690535470983,9.786109,12.85043,17.888597,11.88912,7.559165,7.205901,0.535977,-9.908307,0.028,0.961,-0.212,1.238,1.888,0.98,93.33,206582,1
1690535470987,8.779411,20.53634,20.190891,9.570036,2.144114,3.076168,-3.269414,-10.610286,0.029,0.961,-0.213,1.214,1.904,1.037,93.33,206583,1
1690535470991,10.371266,18.991501,18.111902,11.913104,1.067015,-4.14891,-4.401027,-13.342957,0.029,0.961,-0.212,1.191,1.876,1.017,93.33,206584,1
1690535470995,14.348222,14.825576,15.98229,4.626948,-5.13781,-7.123253,-11.369289,-15.744062,0.034,0.961,-0.213,1.062,1.882,1.071,93.33,206585,1
1690535470999,14.210251,15.678078,13.662328,1.900157,-8.09408,-12.515485,-15.32719,-15.442734,0.031,0.959,-0.211,1.12,1.768,1.054,93.33,206586,1
1690535471003,13.942776,8.897276,8.73135,-5.490101,-12.165141,-17.258751,-15.688124,-19.421905,0.028,0.96,-0.212,1.173,1.802,0.91,93.33,206587,1
1690535471007,9.765907,11.569391,5.468883,-5.645957,-17.726453,-16.252709,-19.166514,-17.765165,0.034,0.96,-0.214,1.144,1.833,1.069,93.33,206588,1
1690535471011,7.319182,3.092542,1.163375,-10.724149,-19.709679,-24.522697,-19.966721,-11.603841,0.032,0.959,-0.213,1.183,1.801,1.024,93.33,206589,1
1690535471015,4.109672,0.246716,-4.403182,-15.631389,-24.992633,-18.167105,-17.141898,-14.116293,0.032,0.961,-0.215,1.257,1.883,1.046,93.33,206590,1
1690535471019,0.020453,-1.956317,-5.011781,-16.590051,-22.760578,-21.331098,-19.379452,-6.903903,0.031,0.959,-0.213,1.1,1.78,0.971,93.33,206591,1
1690535471023,-4.814427,-7.869898,-9.779006,-19.541945,-21.237939,-16.446156,-10.844193,-2.352481,0.031,0.959,-0.213,1.115,1.8,1.008,93.33,206592,1
1690535471027,-11.024741,-13.449219,-21.16591,-22.131901,-24.760021,-13.612384,-9.316859,0.165912,0.029,0.959,-0.213,1.149,1.792,0.959,93.33,206593,1
1690535471031,-12.704615,-13.11339,-16.698721,-21.047446,-19.907843,-11.642342,-1.759822,4.857737,0.03,0.959,-0.214,1.113,1.896,1.013,93.33,206594,1
1690535471035,-16.282638,-12.511757,-17.488725,-21.178593,-16.220135,-5.221814,-0.446266,12.043003,0.031,0.96,-0.213,1.15,1.771,1.06,93.33,206595,1
1690535471039,-19.612448,-14.319799,-21.209611,-17.0839,-12.5265,-5.940344,5.238182,17.210056,0.034,0.961,-0.213,1.214,1.772,0.966,93.33,206596,1
1690535471043,-22.84622,-16.038412,-18.200729,-18.259864,-10.82966,-0.50163,8.494778,17.74099,0.025,0.961,-0.212,1.19,1.908,1.055,93.33,206597,1
1690535471047,-23.197396,-13.941126,-14.874811,-10.766069,-0.085037,7.453195,9.649851,19.22504,0.035,0.961,-0.213,1.254,1.838,0.981,93.33,206598,1
1690535471051,-23.802485,-12.925159,-7.91838,-6.434133,3.89929,9.283962,13.346036,21.063464,0.032,0.96,-0.211,1.256,1.836,0.913,93.33,206599,1
1690535471055,-23.091225,-12.492671,-6.756149,-1.064009,8.557281,12.904051,14.417489,23.832921,0.029,0.96,-0.213,1.293,1.849,0.948,93.33,206600,1
1690535471059,-24.4505,-10.673374,1.388286,2.993787,10.334655,9.794872,15.690562,17.623279,0.031,0.961,-0.213,1.311,1.775,0.908,93.33,206601,1
1690535471063,-19.347228,-2.712858,4.56532,10.36223,18.806322,12.199537,12.881793,12.923877,0.031,0.962,-0.213,1.229,1.783,1.029,93.33,206602,1
1690535471067,-13.507105,0.716836,8.543842,13.240436,17.59161,11.384028,10.28964,14.473878,0.028,0.96,-0.213,1.192,1.862,1.055,93.33,206603,1
1690535471071,-11.294542,4.637986,10.60203,15.545244,19.299841,12.817385,8.837234,10.707085,0.03,0.958,-0.213,1.242,1.729,1.002,93.33,206604,1
1690535471075,-4.873793,4.622466,12.497525,16.993478,19.275396,9.372144,4.931308,4.577882,0.031,0.96,-0.212,1.158,1.824,0.854,93.33,206605,1
1690535471079,-2.862452,10.29858,15.212313,21.656012,17.086286,5.882571,1.97625,0.090933,0.03,0.961,-0.213,1.299,1.806,0.991,93.33,206606,1
1690535471083,2.615573,13.517697,15.822303,18.889626,16.626885,2.199335,-2.344662,-5.224666,0.033,0.96,-0.212,1.22,1.748,0.993,93.33,206607,1
1690535471087,5.728966,13.300848,19.366856,16.455726,12.938429,-1.696339,-5.183909,-12.311694,0.031,0.96,-0.212,1.18,1.808,1.023,93.33,206608,1
1690535471091,4.093153,15.581346,15.879593,11.660441,10.765989,-3.129493,-10.802234,-13.874947,0.035,0.957,-0.213,1.195,1.726,0.941,93.33,206609,1
1690535471095,9.599505,15.690575,18.979599,10.887916,4.318301,-8.118415,-13.994473,-17.164736,0.032,0.959,-0.211,1.242,1.776,0.984,93.33,206610,1
1690535471099,8.703115,13.832701,14.717811,9.100167,-0.550692,-12.236313,-18.069375,-15.720054,0.035,0.96,-0.213,1.161,1.754,1.075,93.33,206611,1
1690535471103,8.244732,9.54222,9.595619,4.664573,-0.395156,-17.954595,-20.359855,-22.759969,0.028,0.961,-0.213,1.164,1.769,0.97,93.33,206612,1
1690535471107,11.320111,6.359173,2.547743,2.530344,-8.361677,-17.942565,-23.614267,-18.406757,0.03,0.959,-0.213,1.228,1.798,0.978,93.33,206613,1
1690535471111,5.088115,-0.698114,3.983342,-5.445864,-7.01485,-21.292011,-21.958308,-16.351313,0.029,0.963,-0.213,1.174,1.783,1.006,93.33,206614,1
1690535471115,-1.465735,-1.540089,-3.454689,-8.403358,-10.207155,-21.797773,-20.381176,-19.890825,0.031,0.958,-0.213,1.232,1.839,0.939,93.33,206615,1
1690535471119,-2.345574,-5.261114,-11.552277,-12.952071,-13.70782,-21.715443,-16.931912,-13.703091,0.031,0.96,-0.213,1.227,1.833,0.968,93.33,206616,1
1690535471123,-8.73557,-11.66999,-14.524467,-14.859789,-14.323924,-19.734244,-12.118798,-10.721755,0.029,0.962,-0.213,1.25,1.773,0.967,93.33,206617,1
1690535471127,-12.434656,-12.800213,-21.256129,-14.62014,-14.330291,-21.400915,-7.981399,-2.161108,0.031,0.96,-0.214,1.152,1.903,0.975,93.33,206618,1
1690535471131,-15.341719,-20.908655,-19.952871,-12.254928,-8.794223,-15.109975,-2.818195,0.69791,0.03,0.959,-0.212,1.204,1.781,0.965,93.33,206619,1
1690535471135,-19.65249,-16.721348,-19.534101,-13.589745,-7.564842,-8.583664,-0.002772,7.361333,0.031,0.959,-0.212,1.243,1.86,0.975,93.33,206620,1
1690535471139,-21.617117,-15.674766,-15.763982,-9.466935,-2.22043,-7.238955,6.790487,8.579314,0.03,0.961,-0.213,1.186,1.852,1.039,93.33,206621,1
1690535471143,-24.965791,-16.630691,-14.214674,-4.028609,-1.636269,0.71401,9.986289,12.990925,0.03,0.96,-0.214,1.289,1.765,0.935,93.33,206622,1
1690535471147,-23.957288,-14.024065,-16.135315,-1.059031,6.75724,1.397186,12.835204,13.90751,0.027,0.959,-0.212,1.19,1.741,0.963,93.33,206623,1
1690535471151,-28.233446,-9.447536,-8.050097,0.457872,9.138096,10.17727,18.954805,18.467309,0.03,0.96,-0.213,1.151,1.837,0.93,93.33,206624,1
1690535471155,-24.447733,-11.25886,-4.918685,7.139397,14.54442,13.283271,15.53,15.704574,0.028,0.96,-0.213,1.237,1.841,0.931,93.33,206625,1
1690535471159,-20.185371,-4.458889,0.230391,13.550165,26.000444,15.206117,19.296632,17.139312,0.031,0.961,-0.213,1.283,1.801,1.054,93.33,206626,1
1690535471163,-18.453599,-1.524308,1.900129,15.652194,22.210886,15.891666,16.852149,17.630172,0.029,0.961,-0.212,1.19,1.809,0.946,93.33,206627,1
1690535471167,-15.441633,5.307379,9.418649,18.408145,24.636934,15.689986,16.380199,11.874618,0.034,0.961,-0.215,1.254,1.701,0.985,93.33,206628,1
1690535471171,-11.149399,6.463094,11.554734,17.38669,27.872224,18.297557,14.009469,7.314257,0.032,0.959,-0.213,1.185,1.793,0.978,93.33,206629,1
1690535471175,-5.40417,7.517832,10.732239,19.714752,29.293152,13.583983,13.687316,2.473646,0.033,0.961,-0.214,1.286,1.736,0.987,93.33,206630,1
1690535471179,0.992763,15.733211,14.045541,16.383501,25.984975,14.29782,12.009818,-0.531661,0.034,0.96,-0.213,1.277,1.783,0.87,93.33,206631,1
1690535471183,2.853359,20.593248,17.49109,19.172812,24.852607,6.317673,7.34631,-11.020766,0.034,0.96,-0.213,1.238,1.819,0.871,93.33,206632,1
1690535471187,8.665035,18.154511,20.534784,16.715899,17.445444,2.05174,2.685713,-13.193394,0.034,0.96,-0.213,1.221,1.749,0.895,93.33,206633,1
1690535471191,9.570369,17.789718,17.943243,14.621664,18.72032,1.059292,-2.357151,-15.276108,0.034,0.961,-0.212,1.21,1.816,0.965,93.33,206634,1
1690535471195,12.241255,19.518317,16.520738,12.44841,8.295884,-3.081473,-11.721033,-12.74239,0.03,0.96,-0.212,1.234,1.791,1.057,93.33,206635,1
1690535471199,14.086773,13.525769,10.201373,8.333707,7.31754,-8.277415,-13.823877,-17.590324,0.027,0.959,-0.213,1.246,1.784,0.939,93.33,206636,1
1690535471203,13.861829,13.020159,9.750626,3.567787,3.99764,-16.418713,-12.132381,-19.152748,0.035,0.96,-0.212,1.254,1.747,0.878,93.33,206637,1
1690535471207,13.711902,10.907037,4.715493,-1.444673,-0.929278,-15.321347,-16.313083,-18.097461,0.031,0.961,-0.213,1.209,1.836,0.975,93.33,206638,1
1690535471211,8.065068,9.728375,-0.21523,-8.018484,-7.857952,-20.743136,-17.264299,-16.419335,0.032,0.959,-0.21,1.153,1.721,0.953,93.33,206639,1
1690535471215,10.958033,4.881009,-5.757365,-10.796273,-8.484602,-17.740717,-16.102119,-12.345638,0.031,0.959,-0.212,1.156,1.797,0.925,93.33,206640,1
1690535471219,5.07554,-1.257821,-9.699181,-13.622896,-13.087058,-19.315683,-15.356759,-9.565948,0.03,0.959,-0.213,1.297,1.761,0.866,93.33,206641,1
1690535471223,3.947357,-4.993177,-15.976429,-13.190604,-11.565561,-14.673588,-11.920673,-9.267065,0.032,0.961,-0.213,1.208,1.81,0.93,93.33,206642,1
1690535471227,-2.792492,-8.894515,-14.397853,-16.189055,-9.0869,-13.417277,-0.919606,-2.403478,0.033,0.959,-0.211,1.181,1.746,0.947,93.33,206643,1
1690535471231,-4.954163,-19.694237,-15.927294,-14.569461,-9.830642,-8.242943,-6.207961,4.714195,0.033,0.96,-0.212,1.269,1.742,0.907,93.33,206644,1
1690535471235,-6.838702,-18.543171,-18.049797,-11.575602,-7.184242,-4.508454,0.367983,7.672561,0.032,0.959,-0.212,1.21,1.596,0.869,93.33,206645,1
1690535471239,-12.258426,-17.804386,-15.934791,-8.492778,-2.145227,-1.791406,7.49458,9.880988,0.032,0.962,-0.213,1.195,1.764,0.983,93.33,206646,1
1690535471243,-14.83915,-18.438429,-12.640242,-8.076333,2.839467,5.329628,10.179906,12.316681,0.029,0.961,-0.214,1.316,1.901,0.889,93.33,206647,1
1690535471247,-14.902315,-16.998038,-15.999858,-3.216835,5.751511,7.401551,13.38319,16.389278,0.031,0.961,-0.213,1.129,1.745,0.974,93.33,206648,1
1690535471251,-10.464876,-11.043495,-12.424765,-0.024785,13.635434,7.936592,17.775258,14.292994,0.029,0.959,-0.212,1.186,1.768,0.993,93.33,206649,1
1690535471255,-11.296459,-8.999849,-8.406754,4.520473,17.641685,18.232256,16.72573,16.963012,0.031,0.96,-0.212,1.396,1.734,0.932,93.33,206650,1
1690535471259,-7.092456,-9.456277,-2.611907,8.245487,20.625257,20.512114,22.008141,18.47183,0.032,0.958,-0.212,1.233,1.771,0.917,93.33,206651,1
1690535471263,-4.511678,-2.323757,0.640471,11.302972,22.471062,20.586648,19.10452,15.024866,0.034,0.959,-0.212,1.238,1.818,0.919,93.33,206652,1
1690535471267,0.136296,1.707974,9.95477,17.06587,21.558161,21.356849,21.040518,15.380876,0.031,0.959,-0.212,1.301,1.852,0.921,93.33,206653,1
1690535471271,2.796927,5.478006,9.890573,15.911298,24.920879,16.150395,16.553973,11.499861,0.03,0.961,-0.211,1.293,1.776,0.994,93.33,206654,1
1690535471275,6.541325,5.717243,18.73329,20.049073,22.168886,16.971947,16.2242,3.85872,0.03,0.96,-0.213,1.255,1.742,0.919,93.33,206655,1
1690535471279,10.657587,11.607108,18.244847,18.917555,21.756502,17.376657,8.764362,2.858863,0.032,0.961,-0.212,1.308,1.766,0.902,93.33,206656,1
1690535471283,12.383032,13.419829,19.543323,17.655579,20.229795,13.990239,6.422579,-2.899443,0.033,0.962,-0.213,1.346,1.706,0.924,93.33,206657,1
1690535471287,11.615661,14.986539,16.086055,19.374737,13.573744,10.165088,-0.574844,-6.957433,0.029,0.96,-0.214,1.245,1.731,0.893,93.33,206658,1
1690535471291,19.406187,14.594891,16.13034,15.861963,10.563409,5.431432,-3.72913,-9.329598,0.031,0.959,-0.211,1.232,1.786,0.995,93.33,206659,1
1690535471295,23.060151,14.015564,14.883917,10.56572,2.424903,0.9197,-11.478257,-14.250211,0.031,0.96,-0.213,1.322,1.804,0.926,93.33,206660,1
1690535471299,19.50745,11.328969,11.140615,5.75,-1.034018,-6.557031,-13.567716,-16.343788,0.034,0.962,-0.212,1.274,1.713,1.034,93.33,206661,1
1690535471303,19.909347,9.26508,5.86316,-0.95483,-9.938137,-10.120812,-17.851302,-15.012953,0.031,0.959,-0.213,1.244,1.7,0.931,93.33,206662,1
1690535471307,16.691857,10.844886,5.130755,-2.682275,-10.009993,-8.795419,-18.846665,-15.937895,0.034,0.961,-0.213,1.317,1.736,0.859,93.33,206663,1
1690535471311,10.857751,3.335674,-4.736873,-8.097198,-13.924422,-15.496076,-15.288666,-13.900568,0.031,0.959,-0.212,1.206,1.775,0.938,93.33,206664,1
1690535471315,11.448231,1.180819,-6.563425,-11.988607,-16.983072,-15.641903,-17.865134,-12.128459,0.026,0.959,-0.213,1.194,1.868,1.004,93.33,206665,1
1690535471319,12.738951,-5.258486,-13.009091,-14.125749,-15.980972,-18.251313,-9.387362,-6.300682,0.03,0.961,-0.213,1.232,1.797,0.948,93.33,206666,1
1690535471323,6.765526,-8.724413,-12.733786,-13.90364,-16.364359,-10.999614,-9.738091,-5.429077,0.032,0.959,-0.213,1.156,1.881,0.858,93.33,206667,1
1690535471327,-1.663387,-14.97886,-17.277625,-16.519155,-18.017899,-9.632132,-8.48386,1.096794,0.033,0.961,-0.212,1.292,1.838,0.865,93.33,206668,1
1690535471331,0.069498,-17.010974,-17.557463,-15.346146,-16.477982,-6.136288,0.747983,3.876448,0.033,0.961,-0.213,1.268,1.882,0.963,93.33,206669,1
1690535471335,-5.795053,-20.311156,-16.354801,-14.434235,-15.944382,-1.49149,-2.62095,3.120543,0.03,0.959,-0.212,1.273,1.769,0.91,93.33,206670,1
1690535471339,-9.432636,-19.919712,-20.597906,-13.52579,-9.378358,0.506059,5.44,6.519303,0.033,0.958,-0.212,1.232,1.757,0.933,93.33,206671,1
1690535471343,-13.087929,-20.094856,-19.107889,-10.712403,-9.626949,4.277662,8.400592,12.305657,0.029,0.961,-0.212,1.319,1.75,0.769,93.33,206672,1
1690535471347,-11.715229,-18.268739,-15.151422,-8.795293,-3.390421,13.945816,13.051556,16.697295,0.027,0.957,-0.212,1.304,1.8,0.949,93.33,206673,1
1690535471351,-12.876135,-15.691627,-12.064768,-5.96056,1.18999,18.925507,14.203884,14.872123,0.032,0.961,-0.212,1.194,1.728,0.874,93.33,206674,1
1690535471355,-10.386302,-13.66432,-10.767994,2.701933,4.013442,16.056934,14.778538,14.968265,0.032,0.959,-0.213,1.226,1.788,0.9,93.33,206675,1
1690535471359,-7.686474,-8.715643,0.870835,4.527972,9.469565,22.340303,14.403379,16.018193,0.034,0.96,-0.212,1.318,1.71,0.95,93.33,206676,1
1690535471363,-3.31105,-1.655574,5.376503,13.049052,8.368404,21.085844,14.291933,12.653551,0.033,0.959,-0.213,1.296,1.803,0.94,93.33,206677,1
1690535471367,-0.261001,3.153092,9.227508,13.986143,13.900358,24.265415,14.701502,9.090004,0.03,0.961,-0.213,1.274,1.832,0.968,93.33,206678,1
1690535471371,0.473265,10.15012,11.757111,14.583053,14.156759,23.371102,11.320102,5.549154,0.032,0.961,-0.213,1.252,1.754,0.954,93.33,206679,1
1690535471375,5.378863,10.479643,16.696709,18.805903,13.626675,20.59786,5.407118,0.228756,0.032,0.96,-0.212,1.267,1.771,0.935,93.33,206680,1
1690535471379,13.430184,13.282597,16.794083,16.674485,11.477351,14.878178,1.000743,-3.325668,0.033,0.962,-0.21,1.259,1.827,0.877,93.33,206681,1
1690535471383,12.380185,17.966777,17.136237,16.426348,9.41451,7.798262,0.27398,-10.812797,0.03,0.958,-0.212,1.281,1.734,0.846,93.33,206682,1
1690535471387,15.767404,18.294643,19.005967,15.827358,2.429366,2.692289,-7.734776,-9.737076,0.032,0.961,-0.212,1.137,1.781,0.839,93.33,206683,1
1690535471391,18.528113,21.443477,16.6217,13.928612,-0.51563,-0.190701,-10.265486,-14.025519,0.032,0.958,-0.213,1.309,1.772,0.92,93.33,206684,1
1690535471395,21.326503,18.178072,14.417854,9.307318,-2.924078,-4.878984,-16.823327,-15.997282,0.031,0.959,-0.213,1.292,1.728,0.868,93.33,206685,1
1690535471399,21.719618,19.578864,7.269941,8.350269,-11.147467,-6.355989,-17.691848,-19.0316,0.031,0.96,-0.212,1.255,1.864,0.89,93.33,206686,1
1690535471403,20.071611,14.277299,10.443655,1.486654,-13.318199,-12.369483,-17.853806,-20.771001,0.031,0.961,-0.212,1.284,1.856,0.835,93.33,206687,1
1690535471407,19.617639,9.321271,3.208977,0.741826,-17.620471,-14.971387,-22.093228,-18.737481,0.034,0.961,-0.213,1.372,1.772,0.909,93.33,206688,1
1690535471411,15.961559,4.998667,-1.199672,-1.563923,-22.281726,-14.847056,-21.327947,-18.869831,0.031,0.96,-0.213,1.202,1.786,0.878,93.33,206689,1
1690535471415,10.256462,2.646909,-4.631811,-7.229946,-24.764435,-19.316721,-16.349045,-11.782998,0.03,0.961,-0.213,1.33,1.712,0.739,93.33,206690,1
1690535471419,8.491558,-1.682128,-7.025667,-11.744539,-26.477951,-17.63578,-17.754288,-13.112364,0.034,0.963,-0.212,1.291,1.735,0.868,93.33,206691,1
1690535471423,1.947135,-6.43561,-12.529615,-13.269061,-27.623222,-15.779538,-13.535032,-4.820464,0.03,0.959,-0.213,1.282,1.782,0.911,93.33,206692,1
1690535471427,-0.812926,-7.435201,-11.534076,-15.199737,-24.54986,-11.1603,-8.53517,-3.950437,0.035,0.959,-0.21,1.32,1.804,0.83,93.33,206693,1
1690535471431,-6.03562,-11.021551,-16.668484,-17.9785,-18.865697,-6.124391,-6.276806,8.089965,0.031,0.961,-0.212,1.173,1.782,0.883,93.33,206694,1
1690535471435,-6.78021,-13.005295,-16.453161,-16.885119,-18.333815,-5.044661,-2.429787,9.701933,0.033,0.961,-0.211,1.246,1.776,0.826,93.33,206695,1
1690535471439,-11.571901,-14.725935,-17.834913,-12.742482,-13.633121,-1.809642,3.119392,12.746321,0.029,0.959,-0.212,1.159,1.647,0.805,93.33,206696,1
1690535471443,-13.698766,-17.911517,-15.707726,-13.453751,-11.901026,3.908254,7.403447,17.092227,0.031,0.959,-0.212,1.293,1.885,0.914,93.33,206697,1
1690535471447,-13.542782,-13.964708,-14.693556,-7.682811,-6.206613,12.221628,11.970227,16.856323,0.03,0.958,-0.211,1.275,1.743,0.851,93.33,206698,1
1690535471451,-10.111893,-11.353175,-10.094466,-3.149393,-1.977025,11.574803,17.921123,16.44307,0.036,0.96,-0.214,1.283,1.832,0.794,93.33,206699,1
1690535471455,-14.578651,-8.401024,-6.108484,2.819882,4.65594,15.121254,19.620985,19.096503,0.032,0.96,-0.211,1.257,1.771,0.861,93.33,206700,1
1690535471459,-8.867453,-5.345604,0.682663,4.135582,4.718751,19.507957,19.017858,17.651188,0.034,0.961,-0.212,1.25,1.765,0.801,93.33,206701,1
1690535471463,-7.553452,-0.036967,4.886331,10.392933,11.743392,18.02743,18.029427,16.469424,0.034,0.96,-0.212,1.163,1.807,0.862,93.33,206702,1
1690535471467,-5.690625,3.055988,7.936934,15.045308,11.236865,18.34687,14.481926,12.226951,0.034,0.962,-0.213,1.296,1.853,0.785,93.33,206703,1
1690535471471,-0.078474,7.983179,10.898713,15.002277,9.63043,18.28794,12.044099,9.856831,0.03,0.962,-0.21,1.266,1.747,0.812,93.33,206704,1
1690535471475,3.396048,7.335002,14.532433,19.190935,11.371044,13.683549,9.648133,6.96593,0.026,0.959,-0.213,1.247,1.78,0.886,93.33,206705,1
1690535471479,7.727367,13.856811,20.621634,17.235495,11.287449,11.014473,4.51647,2.952711,0.033,0.961,-0.213,1.244,1.799,0.907,93.33,206706,1
1690535471483,14.086501,14.701653,19.606984,16.015033,8.334769,2.537466,3.354993,-4.205053,0.033,0.959,-0.212,1.352,1.768,0.813,93.33,206707,1
1690535471487,15.772764,17.099374,18.816822,10.963774,8.410362,-0.043444,-2.452036,-6.961038,0.032,0.96,-0.212,1.306,1.792,0.915,93.33,206708,1
1690535471491,14.980809,22.393775,16.242203,8.060811,7.682275,-2.041417,-8.923459,-10.98143,0.032,0.96,-0.213,1.249,1.778,0.804,93.33,206709,1
1690535471495,19.208882,13.002373,15.935088,5.599273,-2.097382,-6.006766,-9.775132,-15.407977,0.032,0.96,-0.214,1.242,1.865,0.933,93.33,206710,1
1690535471499,16.602104,18.489343,15.007275,5.396726,-4.334429,-14.120948,-13.373729,-17.832728,0.03,0.961,-0.213,1.167,1.815,0.826,93.33,206711,1
1690535471503,17.421238,12.147173,9.329756,-1.009439,-8.913227,-18.866789,-17.82774,-15.578834,0.034,0.961,-0.212,1.254,1.769,0.876,93.33,206712,1
1690535471507,16.994489,7.028409,5.339384,-6.373152,-14.914297,-22.024669,-16.703668,-16.001184,0.031,0.96,-0.213,1.315,1.672,0.892,93.33,206713,1
1690535471511,13.302731,4.623108,-1.278916,-9.573625,-16.405656,-23.964384,-20.91117,-13.353568,0.032,0.96,-0.211,1.307,1.798,0.822,93.33,206714,1
1690535471515,11.338068,-1.827036,-8.486593,-13.153126,-17.287079,-27.438029,-16.991122,-10.361183,0.029,0.962,-0.213,1.267,1.863,0.805,93.33,206715,1
1690535471519,1.246141,-4.89037,-8.789901,-20.735026,-20.49443,-25.7249,-14.901949,-7.037009,0.033,0.958,-0.212,1.314,1.854,0.783,93.33,206716,1
1690535471523,-1.226649,-10.472697,-11.889091,-21.798676,-20.248776,-24.486247,-5.797017,-1.543768,0.031,0.96,-0.211,1.162,1.725,0.864,93.33,206717,1
1690535471527,-4.9648,-13.60078,-18.134639,-27.87212,-23.715752,-19.790355,-3.738389,3.639675,0.031,0.96,-0.213,1.28,1.768,0.927,93.33,206718,1
1690535471531,-7.384649,-13.189182,-17.324899,-22.708268,-18.501966,-13.668753,0.354489,5.978662,0.032,0.962,-0.213,1.346,1.786,0.882,93.33,206719,1
1690535471535,-12.795891,-21.602723,-18.897502,-25.828493,-19.033121,-9.755733,5.709151,8.594856,0.031,0.96,-0.212,1.255,1.654,0.832,93.33,206720,1
1690535471539,-10.313482,-18.208806,-16.288413,-18.97327,-12.282967,-3.531546,10.198782,11.449123,0.032,0.958,-0.213,1.368,1.735,0.938,93.329,206721,1
1690535471543,-14.58716,-19.912864,-15.593454,-16.140316,-4.495927,-0.454193,9.627036,11.90247,0.031,0.96,-0.211,1.272,1.857,0.937,93.329,206722,1
1690535471547,-10.177066,-17.167372,-12.533331,-13.086782,-0.160922,4.204595,14.542462,17.600548,0.03,0.96,-0.213,1.338,1.761,0.863,93.329,206723,1
1690535471551,-10.283778,-12.927279,-4.844495,-0.275544,3.418233,12.060973,17.565277,20.021867,0.033,0.96,-0.211,1.299,1.665,0.841,93.329,206724,1
1690535471555,-14.170549,-14.22693,-5.679907,2.412372,9.845443,12.942622,16.204882,20.507414,0.03,0.96,-0.213,1.271,1.717,0.853,93.329,206725,1
1690535471559,-10.730038,-12.59872,-4.088633,2.513843,15.345926,18.221103,18.500032,16.848147,0.031,0.961,-0.212,1.278,1.782,0.847,93.329,206726,1
1690535471563,-3.4465,-8.161307,5.075776,7.921804,17.373284,16.620553,23.364333,12.899736,0.033,0.96,-0.212,1.302,1.774,0.802,93.329,206727,1
1690535471567,-1.622055,0.314146,10.826626,7.93914,20.82665,16.707738,21.703915,10.890226,0.028,0.958,-0.211,1.371,1.7,0.879,93.329,206728,1
1690535471571,5.083182,5.453332,11.215162,11.602612,20.768141,14.781159,17.440059,7.534156,0.03,0.96,-0.212,1.324,1.602,0.805,93.329,206729,1
1690535471575,7.224862,9.570727,14.576461,10.555666,21.43694,14.340172,16.502956,1.516423,0.03,0.961,-0.212,1.415,1.713,0.91,93.329,206730,1
1690535471579,9.911079,12.128809,14.600237,16.238496,21.679805,11.466715,12.607532,-3.960272,0.032,0.961,-0.213,1.243,1.736,0.777,93.329,206731,1
1690535471583,11.705557,10.677257,19.284059,12.874429,12.416165,4.214844,5.597703,-7.610058,0.03,0.96,-0.214,1.337,1.79,0.891,93.329,206732,1
1690535471587,17.112846,16.382224,16.45107,12.717404,12.20544,2.784878,2.731953,-12.679144,0.037,0.959,-0.215,1.289,1.837,0.819,93.329,206733,1
1690535471591,19.551904,16.45477,17.059048,8.22364,10.994654,-6.525579,-4.312417,-16.123683,0.034,0.961,-0.212,1.313,1.723,0.915,93.329,206734,1
1690535471595,16.070562,19.261099,15.596585,4.529358,5.01792,-7.843491,-8.600421,-17.694349,0.032,0.96,-0.212,1.325,1.768,0.828,93.329,206735,1
1690535471599,19.132491,11.1813,15.063454,-1.548537,-1.49629,-14.972477,-12.735301,-23.97639,0.031,0.961,-0.213,1.297,1.745,0.873,93.329,206736,1
1690535471603,21.051419,13.945378,9.296169,-5.787848,-0.907602,-16.670424,-10.304361,-21.229798,0.033,0.96,-0.211,1.353,1.67,0.805,93.329,206737,1
1690535471607,19.129614,11.50538,3.854429,-10.318178,-7.97375,-19.838162,-13.136111,-21.134267,0.029,0.961,-0.212,1.294,1.652,0.801,93.329,206738,1
1690535471611,13.820189,6.649294,2.25746,-12.516659,-12.412253,-23.632507,-17.163948,-18.576165,0.031,0.961,-0.213,1.382,1.775,0.738,93.329,206739,1
1690535471615,10.803603,2.508634,-5.579105,-18.059968,-16.221665,-25.782608,-13.597848,-16.681145,0.032,0.961,-0.212,1.269,1.708,0.801,93.329,206740,1
1690535471619,1.954213,-1.85691,-11.714323,-25.512059,-17.621763,-23.848837,-12.990893,-9.640456,0.034,0.961,-0.212,1.259,1.844,0.777,93.329,206741,1
1690535471623,-2.595408,-7.543837,-17.115093,-24.52752,-19.3644,-23.61761,-14.101858,-7.936319,0.032,0.959,-0.212,1.371,1.802,0.759,93.329,206742,1
1690535471627,-9.689116,-9.349545,-16.233912,-24.496826,-19.206837,-17.538511,-9.169924,-0.133323,0.032,0.961,-0.211,1.246,1.831,0.75,93.329,206743,1
1690535471631,-13.778626,-11.746782,-19.845839,-23.963079,-15.956826,-12.544086,-4.218023,1.437106,0.032,0.961,-0.212,1.263,1.756,0.88,93.329,206744,1
1690535471635,-14.703791,-13.92451,-20.357796,-23.226946,-11.778392,-7.154789,1.634514,7.937831,0.031,0.962,-0.211,1.298,1.798,0.857,93.329,206745,1
1690535471639,-18.614281,-15.530796,-20.080448,-18.412915,-5.391916,-2.458026,4.066029,12.687224,0.032,0.962,-0.211,1.268,1.754,0.798,93.329,206746,1
1690535471643,-21.114724,-15.721381,-14.498415,-13.731186,-5.883595,0.695605,8.929729,13.694955,0.033,0.961,-0.212,1.458,1.714,0.784,93.329,206747,1
1690535471647,-19.323114,-11.698877,-12.009376,-11.072373,-0.162363,3.705168,10.072639,15.658473,0.032,0.96,-0.214,1.273,1.746,0.763,93.329,206748,1
1690535471651,-21.662887,-11.50435,-8.217291,-11.106186,3.265581,13.30028,16.787308,13.876949,0.032,0.962,-0.211,1.403,1.709,0.826,93.329,206749,1
1690535471655,-20.782984,-9.752215,-6.110939,-7.494829,13.847179,18.095562,16.366738,18.654244,0.03,0.96,-0.213,1.257,1.691,0.789,93.329,206750,1
1690535471659,-18.799817,-4.205046,-2.600664,-2.212637,18.423954,18.484533,16.944383,14.535727,0.029,0.96,-0.211,1.356,1.712,0.765,93.329,206751,1
1690535471663,-13.337858,2.743466,1.505066,-0.818742,19.091117,20.516739,19.460083,14.737789,0.034,0.96,-0.211,1.348,1.719,0.804,93.329,206752,1
1690535471667,-7.319387,5.813804,5.619783,9.299531,18.632534,18.531459,15.047237,11.612946,0.031,0.961,-0.211,1.326,1.708,0.758,93.329,206753,1
1690535471671,-1.77131,10.537067,10.823297,10.264555,21.479235,21.067732,14.517885,6.954027,0.029,0.959,-0.212,1.221,1.809,0.702,93.329,206754,1
1690535471675,1.093409,13.225768,15.823534,13.388357,22.308674,18.791266,12.291323,8.009094,0.034,0.962,-0.213,1.174,1.703,0.777,93.329,206755,1
1690535471679,4.617271,10.757287,18.472703,15.14163,18.45925,15.475261,5.190275,2.507554,0.031,0.962,-0.213,1.264,1.788,0.863,93.329,206756,1
1690535471683,8.637031,17.956382,20.737818,12.516408,16.078837,14.921801,-1.252585,-2.923206,0.032,0.96,-0.213,1.328,1.738,0.858,93.329,206757,1
1690535471687,11.959163,19.164272,18.977837,14.019476,14.372073,5.15342,-7.273361,-9.136627,0.034,0.96,-0.212,1.281,1.643,0.804,93.329,206758,1
1690535471691,13.849018,21.224844,19.546878,8.306727,13.240132,0.550422,-10.428956,-12.88833,0.033,0.961,-0.213,1.315,1.733,0.835,93.329,206759,1
1690535471695,13.113452,18.217707,14.251286,8.162976,5.987517,-6.504676,-11.850994,-12.104249,0.034,0.961,-0.212,1.313,1.728,0.808,93.329,206760,1
1690535471699,11.359077,15.270755,9.630405,3.559944,0.570598,-7.835973,-13.880346,-19.557027,0.03,0.961,-0.213,1.308,1.828,0.781,93.329,206761,1
1690535471703,12.443542,13.181538,6.953868,-0.419056,-6.979645,-12.96742,-16.975421,-15.668649,0.031,0.962,-0.212,1.29,1.8,0.832,93.329,206762,1
1690535471707,9.46419,7.700045,2.666907,-4.20336,-12.853582,-17.56403,-19.577848,-15.05732,0.029,0.961,-0.212,1.429,1.713,0.856,93.329,206763,1
1690535471711,8.895925,1.547635,-1.41601,-6.867053,-14.127419,-16.200385,-17.949587,-15.009628,0.033,0.961,-0.212,1.407,1.82,0.908,93.329,206764,1
1690535471715,5.621128,-0.250369,-7.519065,-12.162417,-12.636452,-15.357458,-16.875017,-8.831345,0.032,0.961,-0.212,1.379,1.788,0.769,93.329,206765,1
1690535471719,-1.040688,-4.286922,-10.444693,-11.283843,-16.649736,-15.662229,-15.028741,-6.664645,0.034,0.96,-0.212,1.352,1.763,0.828,93.329,206766,1
1690535471723,-5.825843,-8.742864,-20.129058,-10.905183,-21.479003,-12.362553,-13.583537,-2.301308,0.031,0.961,-0.211,1.285,1.829,0.841,93.329,206767,1
1690535471727,-11.792343,-11.330346,-19.891498,-13.030624,-19.203882,-7.102603,-9.672084,0.248598,0.032,0.962,-0.213,1.394,1.713,0.847,93.329,206768,1
1690535471731,-14.436884,-17.919293,-19.465133,-11.038825,-14.118227,-10.858017,-5.795106,3.671989,0.031,0.962,-0.211,1.315,1.749,0.882,93.329,206769,1
1690535471735,-18.937374,-15.973617,-16.822993,-11.395119,-9.39768,-6.550456,-1.307149,6.897333,0.031,0.96,-0.211,1.294,1.805,0.831,93.329,206770,1
1690535471739,-24.411477,-21.810407,-14.640883,-8.57637,-7.489171,0.161107,2.651082,14.127954,0.032,0.96,-0.211,1.235,1.774,0.764,93.329,206771,1
1690535471743,-24.923407,-17.768934,-14.86505,-3.324192,-2.03306,4.911515,5.675533,16.888389,0.032,0.962,-0.213,1.286,1.716,0.865,93.329,206772,1
1690535471747,-24.790785,-16.782886,-11.456678,-3.848092,2.576367,8.830173,8.303576,18.520892,0.032,0.96,-0.211,1.296,1.76,0.766,93.329,206773,1
1690535471751,-27.61488,-16.116756,-8.255368,-0.501164,5.328992,14.630228,12.948171,18.628506,0.031,0.96,-0.213,1.304,1.782,0.747,93.329,206774,1
1690535471755,-27.312477,-12.682352,-4.268368,5.232082,9.85553,20.177376,16.544157,19.792069,0.032,0.961,-0.211,1.428,1.765,0.691,93.329,206775,1
1690535471759,-22.961893,-7.722465,-2.530023,12.268685,13.717957,19.570345,15.615481,19.169153,0.035,0.961,-0.21,1.266,1.763,0.766,93.329,206776,1
1690535471763,-18.108732,-5.187631,3.129771,17.322346,17.683437,24.024206,13.432435,17.962439,0.033,0.962,-0.211,1.309,1.739,0.762,93.329,206777,1
1690535471767,-13.628201,3.735851,8.433388,17.804642,17.96236,20.713771,14.276211,13.857333,0.032,0.959,-0.213,1.302,1.703,0.803,93.329,206778,1
1690535471771,-7.136966,1.08165,11.974226,20.475121,21.047677,21.917589,12.49981,8.716965,0.035,0.963,-0.214,1.276,1.697,0.829,93.329,206779,1
1690535471775,-0.454733,5.948151,16.216923,27.030485,19.542229,19.167696,7.124945,7.419927,0.033,0.959,-0.212,1.291,1.775,0.73,93.329,206780,1
1690535471779,-0.107314,13.284817,13.853037,24.223937,18.69565,19.087733,1.773437,0.140163,0.032,0.961,-0.212,1.265,1.7,0.726,93.329,206781,1
1690535471783,6.77187,12.57533,16.177581,23.437546,16.483579,14.527552,-5.115807,-2.534683,0.032,0.959,-0.211,1.245,1.685,0.829,93.329,206782,1
1690535471787,5.549992,14.438345,17.20464,22.768887,10.037318,12.783341,-7.458895,-8.053404,0.033,0.961,-0.212,1.262,1.683,0.776,93.329,206783,1
1690535471791,11.271485,13.720264,13.584765,20.115868,10.028084,7.449688,-9.699296,-13.284085,0.031,0.961,-0.212,1.296,1.74,0.782,93.329,206784,1
1690535471795,11.860676,16.99293,11.131523,17.980091,5.602117,-2.722618,-14.030745,-14.479202,0.03,0.961,-0.212,1.298,1.703,0.765,93.329,206785,1
1690535471799,11.412817,11.381427,10.193448,10.580183,-0.104371,-4.792037,-20.332946,-21.53508,0.031,0.961,-0.211,1.349,1.789,0.812,93.329,206786,1
1690535471803,10.982891,13.579393,6.571554,6.152985,-3.789074,-7.802036,-16.838139,-17.922558,0.032,0.959,-0.21,1.391,1.727,0.718,93.329,206787,1
1690535471807,4.045734,6.094851,2.243062,3.419781,-12.490186,-9.77259,-19.820588,-21.496876,0.033,0.96,-0.212,1.282,1.823,0.74,93.329,206788,1
1690535471811,3.903048,4.157328,-2.802176,-1.119663,-10.312857,-12.322599,-18.794456,-17.174532,0.031,0.961,-0.213,1.435,1.739,0.777,93.329,206789,1
1690535471815,-1.422852,-3.890018,-5.878941,-1.671714,-14.762434,-17.103051,-17.639206,-12.054586,0.032,0.961,-0.211,1.371,1.744,0.76,93.329,206790,1
1690535471819,-3.919123,-6.225037,-10.57056,-7.038073,-19.457881,-14.37493,-16.634701,-12.194129,0.037,0.961,-0.213,1.351,1.711,0.724,93.329,206791,1
1690535471823,-11.122285,-9.413573,-13.062746,-8.773604,-19.242007,-10.72042,-10.653572,-5.785748,0.035,0.959,-0.21,1.342,1.796,0.665,93.329,206792,1
1690535471827,-13.116041,-14.122293,-15.485094,-11.225887,-12.361524,-12.01088,-11.567829,-1.544952,0.034,0.96,-0.211,1.314,1.753,0.811,93.329,206793,1
1690535471831,-21.946445,-17.176052,-17.907145,-13.283027,-12.973909,-8.461137,-1.110295,1.465881,0.03,0.96,-0.212,1.268,1.837,0.698,93.329,206794,1
1690535471835,-22.033482,-17.334172,-18.620822,-11.674319,-8.40147,-3.815867,1.675111,4.103035,0.031,0.96,-0.21,1.383,1.82,0.729,93.329,206795,1
1690535471839,-19.75381,-17.862635,-16.687692,-9.782023,-6.229905,-1.618721,8.310754,9.455834,0.036,0.96,-0.212,1.327,1.729,0.799,93.329,206796,1
1690535471843,-24.027398,-17.778498,-19.288107,-6.008537,-3.81432,4.999416,8.063377,15.242701,0.033,0.961,-0.213,1.283,1.701,0.763,93.329,206797,1
1690535471847,-24.978884,-16.214968,-15.641047,2.472007,0.476967,6.909437,18.027573,17.450522,0.031,0.96,-0.211,1.291,1.713,0.818,93.329,206798,1
1690535471851,-21.213989,-18.556204,-10.896655,4.568543,1.357033,16.034719,15.799858,18.176562,0.03,0.96,-0.212,1.309,1.639,0.669,93.329,206799,1
1690535471855,-24.117278,-8.559456,-9.003467,8.847334,7.782814,17.960743,20.270835,17.806748,0.032,0.96,-0.211,1.362,1.82,0.793,93.329,206800,1
1690535471859,-22.020796,-5.55015,-1.631851,11.42257,13.869464,18.977133,20.518808,16.108643,0.034,0.962,-0.212,1.361,1.801,0.758,93.329,206801,1
1690535471863,-14.972495,0.402384,5.186928,20.208227,17.666985,20.160584,22.693911,13.212086,0.034,0.959,-0.212,1.423,1.724,0.734,93.329,206802,1
1690535471867,-7.486183,5.578239,11.632644,22.513043,17.877566,21.536806,20.787653,8.327732,0.033,0.962,-0.213,1.383,1.708,0.774,93.329,206803,1
1690535471871,-2.028319,10.413975,10.746518,25.330843,19.660794,17.059209,12.710947,7.65642,0.034,0.961,-0.211,1.3,1.741,0.831,93.329,206804,1
1690535471875,2.107174,15.032891,18.288267,26.654174,21.164486,15.650347,12.894992,4.026857,0.031,0.961,-0.211,1.404,1.726,0.779,93.329,206805,1
1690535471879,9.443562,15.025321,19.89179,26.705557,18.004039,12.434959,9.79343,-0.123782,0.033,0.96,-0.213,1.32,1.695,0.763,93.329,206806,1
1690535471883,16.362104,16.455967,15.227381,27.134658,17.222719,9.996424,4.377242,-0.898418,0.031,0.961,-0.212,1.3,1.748,0.803,93.329,206807,1
1690535471887,17.249622,16.522882,21.160733,22.291527,11.334304,7.634369,-2.909914,-8.965758,0.031,0.959,-0.212,1.278,1.692,0.687,93.329,206808,1
1690535471891,21.465469,20.131442,15.07688,18.863081,4.557514,2.401187,-2.799693,-11.649517,0.029,0.961,-0.213,1.356,1.81,0.761,93.329,206809,1
1690535471895,20.991877,20.524363,12.901504,14.024534,2.982236,-3.937823,-8.252351,-15.119343,0.029,0.96,-0.212,1.237,1.866,0.778,93.329,206810,1
1690535471899,22.978884,20.878591,7.874968,12.325201,1.176752,-6.538494,-14.646297,-16.286501,0.031,0.96,-0.211,1.351,1.657,0.786,93.329,206811,1
1690535471903,20.797463,16.752254,3.073109,6.092526,-7.010617,-11.472884,-9.870163,-20.178025,0.032,0.959,-0.213,1.303,1.72,0.748,93.329,206812,1
1690535471907,18.571506,9.945112,1.247981,0.492614,-8.27864,-13.747577,-15.356177,-14.762906,0.031,0.96,-0.209,1.32,1.793,0.784,93.329,206813,1
1690535471911,14.5007,9.831981,-6.903615,-6.680663,-16.182807,-19.665114,-14.44606,-10.187195,0.032,0.96,-0.214,1.378,1.691,0.657,93.329,206814,1
1690535471915,13.501897,3.055791,-6.178682,-10.92475,-15.890349,-18.206873,-11.702413,-7.646395,0.03,0.961,-0.212,1.332,1.712,0.703,93.329,206815,1
1690535471919,6.029955,1.655793,-9.364102,-11.218973,-16.9239,-21.437426,-12.703677,-5.65109,0.035,0.959,-0.211,1.282,1.691,0.777,93.329,206816,1
1690535471923,1.816294,-5.357606,-12.764907,-15.68187,-19.596148,-18.522951,-6.091713,-1.304094,0.032,0.961,-0.211,1.469,1.768,0.664,93.329,206817,1
1690535471927,-5.110143,-9.637458,-13.827005,-17.240262,-16.258784,-15.890009,-6.06714,-0.30471,0.037,0.963,-0.213,1.301,1.764,0.758,93.329,206818,1
1690535471931,-3.82317,-16.320765,-19.588305,-16.292764,-15.094379,-13.381352,-2.202422,2.698581,0.035,0.961,-0.212,1.488,1.719,0.75,93.329,206819,1
1690535471935,-11.317923,-18.25488,-16.866968,-16.471617,-10.0169,-6.248325,0.355377,7.46977,0.032,0.961,-0.21,1.277,1.746,0.739,93.329,206820,1
1690535471939,-13.278795,-20.39126,-18.915483,-14.550769,-3.644415,-1.425188,4.02773,13.858003,0.033,0.961,-0.211,1.301,1.722,0.703,93.329,206821,1
1690535471943,-13.782885,-19.292133,-12.518713,-16.003523,-1.109822,-2.085011,6.896228,16.429313,0.03,0.962,-0.21,1.406,1.731,0.748,93.329,206822,1
1690535471947,-13.705333,-21.215997,-10.631355,-8.594774,2.264002,7.150021,11.634034,17.554949,0.035,0.961,-0.212,1.405,1.807,0.772,93.329,206823,1
1690535471951,-15.206353,-19.459332,-6.174094,-4.492787,6.426211,5.513558,15.302296,19.292355,0.032,0.96,-0.211,1.388,1.733,0.749,93.329,206824,1
1690535471955,-10.795288,-13.050488,-1.307603,-1.957805,5.478259,11.074189,18.515906,18.867029,0.033,0.961,-0.211,1.208,1.73,0.691,93.329,206825,1
1690535471959,-11.527393,-7.776937,2.921866,4.818468,13.604343,13.279833,20.2461,13.359839,0.032,0.96,-0.211,1.394,1.679,0.654,93.329,206826,1
1690535471963,-3.406293,-4.247599,6.728854,6.810264,13.072079,16.863213,19.433797,15.022387,0.031,0.96,-0.212,1.376,1.823,0.71,93.329,206827,1
1690535471967,-2.337356,-0.345634,6.802903,8.09853,13.43318,16.635594,17.853632,12.541652,0.031,0.962,-0.211,1.333,1.701,0.715,93.329,206828,1
1690535471971,5.90742,5.088443,14.562598,13.752054,17.076264,17.052521,14.061138,8.467666,0.031,0.96,-0.211,1.309,1.69,0.727,93.329,206829,1
1690535471975,10.186165,8.264676,14.213449,15.996776,17.613684,12.529095,14.258013,4.212297,0.032,0.961,-0.211,1.356,1.689,0.685,93.329,206830,1
1690535471979,16.100837,14.41989,15.947315,12.109411,11.545906,9.988877,7.2216,-2.839223,0.035,0.96,-0.211,1.295,1.676,0.69,93.329,206831,1
1690535471983,19.144682,17.693693,17.404802,10.761945,11.3768,10.020455,3.343642,-6.481278,0.036,0.961,-0.21,1.329,1.785,0.71,93.329,206832,1
1690535471987,23.283606,20.788838,19.90733,12.727605,10.420263,3.211432,1.2528,-8.022615,0.033,0.961,-0.212,1.232,1.798,0.668,93.329,206833,1
1690535471991,25.823334,19.113206,16.143674,7.147219,6.943605,-4.110036,-7.68342,-12.297824,0.033,0.961,-0.213,1.305,1.759,0.676,93.329,206834,1
1690535471995,24.138731,17.552294,15.927848,6.072293,0.426837,-15.199301,-12.155637,-17.06814,0.03,0.959,-0.211,1.371,1.682,0.803,93.329,206835,1
1690535471999,27.125115,11.298809,12.539009,-2.149712,1.02941,-13.977484,-18.712588,-16.258372,0.034,0.961,-0.212,1.384,1.755,0.678,93.329,206836,1
1690535472003,25.007354,11.526359,9.382798,-3.380075,-2.975722,-19.336396,-14.025861,-14.481631,0.032,0.961,-0.211,1.394,1.639,0.713,93.329,206837,1
1690535472007,22.99453,12.00324,1.05895,-11.11393,-10.165933,-21.062212,-18.247368,-15.214416,0.03,0.962,-0.213,1.342,1.698,0.71,93.329,206838,1
1690535472011,18.56135,7.167891,-5.087759,-15.133427,-15.733048,-26.050707,-21.204987,-13.73902,0.031,0.96,-0.213,1.344,1.743,0.7,93.329,206839,1
1690535472015,19.885452,-0.192296,-9.068599,-16.165011,-15.966773,-26.047502,-17.336609,-14.767698,0.029,0.96,-0.213,1.312,1.638,0.731,93.329,206840,1
1690535472019,12.59381,-4.14268,-10.009163,-20.010774,-18.241466,-21.066738,-15.651357,-9.532108,0.032,0.96,-0.212,1.439,1.753,0.749,93.329,206841,1
1690535472023,5.876519,-12.60081,-12.292702,-24.788919,-20.65212,-22.056047,-14.891685,-7.433001,0.031,0.96,-0.211,1.417,1.684,0.609,93.329,206842,1
1690535472027,4.332269,-13.000642,-20.098981,-22.382583,-18.691373,-19.12041,-10.043071,-0.832246,0.034,0.961,-0.211,1.397,1.673,0.719,93.329,206843,1
1690535472031,1.206882,-13.525516,-18.085708,-25.570653,-19.119426,-16.711676,-6.651094,7.596846,0.032,0.959,-0.212,1.398,1.755,0.7,93.329,206844,1
1690535472035,-5.277082,-18.956929,-17.108381,-23.364449,-11.828793,-11.669637,-2.410322,7.470052,0.031,0.96,-0.21,1.293,1.754,0.708,93.329,206845,1
1690535472039,-6.670363,-18.6513,-12.508033,-22.200273,-10.683128,-2.901787,2.518042,11.498722,0.033,0.961,-0.211,1.313,1.705,0.604,93.329,206846,1
1690535472043,-11.059464,-20.33828,-14.899859,-17.0832,-7.492143,-3.876655,11.270974,14.221253,0.033,0.961,-0.213,1.342,1.705,0.699,93.329,206847,1
1690535472047,-11.111897,-20.574175,-11.441755,-15.311975,-0.671946,1.344578,10.581387,12.560482,0.032,0.961,-0.212,1.352,1.701,0.7,93.329,206848,1
1690535472051,-12.130819,-15.620848,-7.544437,-7.607911,3.566073,7.59128,12.773451,18.186664,0.031,0.961,-0.213,1.36,1.784,0.7,93.329,206849,1
1690535472055,-11.223647,-16.22334,-5.374546,-6.980899,2.588158,9.731639,14.861778,15.074845,0.033,0.961,-0.213,1.478,1.784,0.74,93.329,206850,1
1690535472059,-7.976836,-8.39289,-0.478245,-0.656825,8.896846,13.118978,15.726501,16.074312,0.034,0.961,-0.211,1.308,1.68,0.605,93.329,206851,1
1690535472063,-6.194336,-4.334338,2.239701,2.983179,14.722198,12.950465,13.093432,11.604025,0.035,0.962,-0.212,1.313,1.782,0.646,93.329,206852,1
1690535472067,-1.626955,-1.589025,5.848228,6.188221,16.135459,15.761667,12.538202,9.051162,0.033,0.962,-0.212,1.319,1.708,0.69,93.329,206853,1
1690535472071,-0.123094,3.800285,12.735746,6.771382,16.017976,15.655875,13.30787,7.385717,0.031,0.961,-0.211,1.303,1.704,0.65,93.329,206854,1
1690535472075,8.318917,10.970068,13.910058,10.296806,11.719245,15.341315,7.67283,-0.456268,0.028,0.961,-0.212,1.376,1.599,0.675,93.329,206855,1
1690535472079,11.817495,14.794539,16.717953,7.47118,8.854793,12.711979,2.079702,-5.235577,0.032,0.96,-0.212,1.396,1.773,0.688,93.329,206856,1
1690535472083,18.379844,19.221936,20.878522,5.805414,11.87131,8.412429,-3.367493,-5.970523,0.032,0.96,-0.212,1.378,1.681,0.636,93.329,206857,1
1690535472087,22.870138,17.334424,19.764627,6.190915,4.764933,4.249565,-7.029387,-12.330604,0.033,0.96,-0.21,1.306,1.755,0.626,93.329,206858,1
1690535472091,19.417984,20.175988,13.872932,7.086156,5.098763,1.34095,-10.804068,-15.742018,0.03,0.962,-0.212,1.231,1.656,0.755,93.329,206859,1
1690535472095,20.1267,26.057774,15.048677,4.611717,1.857256,-1.45168,-15.994152,-19.889843,0.031,0.96,-0.212,1.311,1.753,0.649,93.329,206860,1
1690535472099,20.703809,16.046402,8.85055,1.07101,-6.376396,-8.310685,-18.795232,-17.704426,0.034,0.962,-0.212,1.376,1.681,0.615,93.329,206861,1
1690535472103,20.269362,13.189802,2.813785,-4.029898,-8.891023,-12.733858,-21.267566,-23.228371,0.033,0.961,-0.213,1.389,1.752,0.757,93.329,206862,1
1690535472107,14.897778,12.587503,3.900095,-9.540873,-12.914385,-17.636029,-22.078596,-21.536596,0.031,0.961,-0.211,1.378,1.642,0.638,93.329,206863,1
1690535472111,16.894961,10.220709,-5.515548,-13.54962,-15.204674,-19.342797,-16.908796,-11.073105,0.036,0.962,-0.211,1.408,1.674,0.652,93.329,206864,1
1690535472115,11.053565,4.032544,-5.568453,-18.500299,-20.145339,-19.841988,-19.182207,-12.353485,0.028,0.961,-0.212,1.335,1.74,0.591,93.329,206865,1
1690535472119,2.214203,-3.541706,-10.934587,-21.412345,-22.828422,-19.253562,-13.773241,-8.743192,0.034,0.962,-0.211,1.378,1.753,0.658,93.329,206866,1
1690535472123,-2.369599,-1.386504,-13.330506,-19.698089,-24.670151,-19.260518,-13.294319,-1.026599,0.032,0.96,-0.211,1.356,1.699,0.733,93.329,206867,1
1690535472127,-3.711895,-9.630521,-15.972714,-23.293989,-21.221471,-18.402324,-9.82972,0.890107,0.033,0.961,-0.211,1.333,1.669,0.689,93.328,206868,1
1690535472131,-6.221158,-9.099649,-17.684221,-17.800335,-20.336659,-15.649934,-7.750777,5.950638,0.034,0.96,-0.212,1.393,1.716,0.687,93.328,206869,1
1690535472135,-13.637719,-13.053008,-16.391078,-15.757518,-17.274605,-10.265952,-3.568022,11.518744,0.033,0.961,-0.212,1.336,1.687,0.673,93.328,206870,1
1690535472139,-17.211929,-17.164019,-18.826771,-15.968045,-12.386646,-5.220687,2.919006,15.846533,0.032,0.961,-0.21,1.348,1.754,0.693,93.328,206871,1
1690535472143,-18.404729,-17.769616,-13.061158,-10.414342,-6.824077,-2.870035,12.257061,15.323457,0.032,0.959,-0.211,1.33,1.728,0.682,93.328,206872,1
1690535472147,-19.999688,-18.95836,-13.793205,-7.188429,-6.479622,7.475448,14.471271,22.621637,0.033,0.96,-0.21,1.348,1.692,0.673,93.328,206873,1
1690535472151,-20.352394,-13.035809,-9.264901,-1.385789,-2.575273,10.760751,12.594282,20.065278,0.034,0.96,-0.212,1.309,1.55,0.672,93.328,206874,1
1690535472155,-21.910611,-14.274901,-2.808242,-0.171021,3.02975,19.496675,17.340672,16.701629,0.033,0.96,-0.212,1.312,1.723,0.592,93.328,206875,1
1690535472159,-14.092959,-8.69827,-0.207378,-0.101791,5.153024,21.033475,15.419527,19.084129,0.033,0.962,-0.21,1.373,1.617,0.628,93.328,206876,1
1690535472163,-13.168839,-2.866037,2.644779,8.378301,6.576842,20.6988,16.75779,14.502959,0.031,0.961,-0.212,1.26,1.575,0.583,93.328,206877,1
1690535472167,-9.164122,-1.12027,10.206262,10.343444,16.069505,23.437319,16.864803,16.126415,0.036,0.961,-0.212,1.306,1.787,0.637,93.328,206878,1
1690535472171,-7.380178,5.156057,15.403743,14.172674,14.413083,23.229053,16.059569,10.329078,0.034,0.962,-0.212,1.337,1.707,0.632,93.328,206879,1
1690535472175,0.479824,11.683913,17.059097,15.74469,11.321599,20.195703,9.801161,4.774881,0.032,0.963,-0.212,1.338,1.795,0.641,93.328,206880,1
1690535472179,5.844579,10.345391,9.539947,18.705432,9.646168,17.844064,4.867975,2.267574,0.032,0.962,-0.211,1.41,1.66,0.687,93.328,206881,1
1690535472183,10.514684,9.874559,15.467709,18.648948,9.969321,17.218147,1.913982,-3.604556,0.036,0.961,-0.211,1.337,1.644,0.599,93.328,206882,1
1690535472187,10.072721,16.91993,15.085246,14.856015,8.007785,8.559356,-2.372255,-9.755557,0.034,0.963,-0.213,1.301,1.616,0.697,93.328,206883,1
1690535472191,16.292824,14.298771,16.281434,19.416273,1.702446,1.472006,-9.33082,-13.75867,0.032,0.962,-0.213,1.251,1.69,0.623,93.328,206884,1
1690535472195,17.425137,18.713467,13.304037,11.284755,-2.127175,1.153384,-10.924024,-15.586234,0.038,0.961,-0.211,1.335,1.753,0.699,93.328,206885,1
1690535472199,13.321045,16.197246,11.816853,7.218643,-8.452646,-4.355075,-11.8864,-12.582328,0.03,0.961,-0.211,1.331,1.591,0.684,93.328,206886,1
1690535472203,12.568601,13.248679,8.548216,3.628873,-12.585771,-10.189391,-12.453319,-17.101962,0.03,0.96,-0.213,1.314,1.641,0.607,93.328,206887,1
1690535472207,11.793592,10.152401,2.931787,-1.841977,-15.486487,-13.723651,-17.334465,-18.486185,0.032,0.961,-0.211,1.336,1.731,0.694,93.328,206888,1
1690535472211,10.28712,4.390865,1.812338,-7.54624,-17.812634,-11.258259,-15.165825,-17.915432,0.035,0.962,-0.21,1.355,1.711,0.629,93.328,206889,1
1690535472215,6.619376,-3.188322,-5.846512,-8.274922,-23.336168,-15.103013,-14.368697,-16.020145,0.032,0.959,-0.211,1.256,1.769,0.606,93.328,206890,1
1690535472219,3.769366,-7.574071,-6.31483,-10.68946,-24.533865,-16.586359,-12.641245,-13.919896,0.032,0.96,-0.212,1.298,1.772,0.721,93.328,206891,1
1690535472223,-1.168394,-6.996297,-15.592691,-10.590981,-16.6712,-16.348586,-9.32782,-6.2104,0.032,0.961,-0.215,1.421,1.654,0.545,93.328,206892,1
1690535472227,-2.299297,-13.200588,-15.297836,-14.383672,-21.232587,-12.588019,-7.027321,-1.386896,0.029,0.961,-0.211,1.309,1.642,0.682,93.328,206893,1
1690535472231,-8.203115,-16.485903,-17.348325,-17.169028,-19.47262,-10.624275,-1.608446,1.609751,0.035,0.961,-0.21,1.427,1.776,0.649,93.328,206894,1
1690535472235,-11.477325,-18.946374,-21.229232,-15.348429,-15.603367,-7.92977,6.129295,8.200948,0.03,0.962,-0.212,1.277,1.621,0.627,93.328,206895,1
1690535472239,-13.795524,-20.330516,-17.675268,-16.205594,-10.541243,0.109617,9.143173,12.035771,0.035,0.961,-0.212,1.42,1.709,0.68,93.328,206896,1
1690535472243,-17.525238,-16.521665,-16.876525,-10.450514,-8.805073,2.05694,13.798114,20.09826,0.031,0.961,-0.212,1.29,1.62,0.582,93.328,206897,1
1690535472247,-20.371371,-16.852481,-14.938898,-9.361434,-2.694611,10.978323,17.707464,17.553556,0.032,0.959,-0.212,1.425,1.691,0.639,93.328,206898,1
1690535472251,-19.419138,-16.242903,-7.76004,1.682377,3.221371,9.160137,19.089152,17.232,0.034,0.96,-0.213,1.327,1.728,0.649,93.328,206899,1
1690535472255,-18.492963,-10.446736,-1.339312,6.175937,7.158595,16.969498,22.146683,17.675544,0.03,0.96,-0.211,1.387,1.66,0.627,93.328,206900,1
1690535472259,-16.357289,-8.273661,0.900081,5.737976,11.179759,15.352458,16.018966,16.264981,0.032,0.961,-0.211,1.539,1.739,0.642,93.328,206901,1
1690535472263,-16.33596,-6.530216,4.260352,10.61214,13.323332,20.277996,17.907,8.837554,0.031,0.961,-0.212,1.402,1.639,0.627,93.328,206902,1
1690535472267,-9.78392,0.002618,6.832873,16.047188,17.691433,24.224854,16.9349,10.742398,0.033,0.961,-0.21,1.467,1.615,0.633,93.328,206903,1
1690535472271,-8.621066,4.515269,9.354852,18.412753,14.932727,18.198205,15.102317,6.43522,0.037,0.961,-0.212,1.374,1.67,0.567,93.328,206904,1
1690535472275,-3.24074,5.689876,14.47211,21.872148,15.484126,21.251486,13.720982,1.945399,0.031,0.959,-0.211,1.303,1.702,0.641,93.328,206905,1
1690535472279,3.985686,7.1872,15.295879,20.010933,14.723775,18.994267,10.488667,-5.860048,0.035,0.961,-0.212,1.361,1.606,0.63,93.328,206906,1
1690535472283,5.894364,16.498419,17.910334,19.728618,13.70565,15.145551,6.326911,-7.304754,0.031,0.961,-0.211,1.297,1.667,0.636,93.328,206907,1
1690535472287,8.552214,14.103208,21.183973,17.651568,10.790987,14.119844,3.997417,-11.364146,0.031,0.961,-0.213,1.346,1.645,0.703,93.328,206908,1
1690535472291,8.98137,16.215911,17.136885,13.173258,7.4249,8.324761,-3.072389,-15.831463,0.03,0.961,-0.212,1.271,1.584,0.733,93.328,206909,1
1690535472295,14.167236,16.272847,13.192507,12.741728,3.182486,3.44986,-8.652597,-15.516135,0.037,0.96,-0.212,1.232,1.726,0.618,93.328,206910,1
1690535472299,16.982272,15.778688,11.760281,8.507395,-2.344087,-5.570063,-10.057204,-23.88006,0.036,0.96,-0.212,1.454,1.738,0.689,93.328,206911,1
1690535472303,13.980882,10.385128,7.991123,5.121372,-4.793411,-9.377893,-11.111797,-21.742292,0.032,0.962,-0.212,1.324,1.594,0.554,93.328,206912,1
1690535472307,10.883566,5.337189,1.16949,-2.312564,-9.507676,-10.11679,-15.546184,-19.374298,0.031,0.961,-0.211,1.311,1.581,0.631,93.328,206913,1
1690535472311,7.664246,6.21795,-2.24572,-1.999676,-9.790725,-17.482859,-18.190012,-15.442167,0.032,0.96,-0.209,1.284,1.707,0.51,93.328,206914,1
1690535472315,4.597833,0.683985,-4.596597,-10.50788,-11.810695,-14.863691,-17.157573,-15.589618,0.028,0.962,-0.21,1.259,1.627,0.668,93.328,206915,1
1690535472319,0.22362,-0.553453,-11.897037,-11.811268,-16.590459,-10.18452,-12.222979,-8.813215,0.03,0.962,-0.21,1.332,1.667,0.657,93.328,206916,1
1690535472323,-4.101781,-4.04799,-10.975497,-17.542106,-15.51482,-11.265137,-12.164544,-3.701891,0.03,0.961,-0.213,1.367,1.722,0.652,93.328,206917,1
1690535472327,-11.666803,-11.481786,-14.504923,-15.057042,-14.09251,-12.178621,-9.797143,-0.309474,0.034,0.962,-0.211,1.336,1.588,0.612,93.328,206918,1
1690535472331,-8.598919,-7.356179,-14.874404,-12.396601,-9.333533,-10.736548,-7.011969,5.052791,0.033,0.96,-0.211,1.276,1.686,0.59,93.328,206919,1
1690535472335,-16.507965,-15.644624,-19.289852,-11.111554,-4.93979,-7.026171,-1.234309,9.159621,0.034,0.963,-0.212,1.326,1.749,0.572,93.328,206920,1
1690535472339,-16.413064,-12.921443,-14.432673,-6.973607,1.688319,-5.976153,-0.313058,11.52775,0.036,0.96,-0.211,1.326,1.669,0.693,93.328,206921,1
1690535472343,-18.614952,-15.590144,-15.965828,-9.638645,4.979222,3.9122,4.817934,11.455023,0.033,0.961,-0.212,1.358,1.604,0.551,93.328,206922,1
1690535472347,-17.329722,-14.408198,-9.257152,-3.794965,4.682712,7.811368,8.982019,14.512012,0.035,0.961,-0.209,1.387,1.597,0.684,93.328,206923,1
1690535472351,-16.760537,-8.545891,-6.384237,1.604198,9.204539,14.453028,12.527838,19.260817,0.031,0.961,-0.212,1.318,1.644,0.599,93.328,206924,1
1690535472355,-16.695728,-9.474863,-3.634407,2.838649,15.618839,14.987673,16.791321,17.787775,0.034,0.961,-0.213,1.356,1.637,0.663,93.328,206925,1
1690535472359,-14.100474,-2.472852,2.031834,9.32354,19.351638,17.523768,15.08221,17.476864,0.031,0.963,-0.213,1.369,1.607,0.715,93.328,206926,1
1690535472363,-12.625499,2.092243,6.294944,17.035268,18.870403,19.825909,17.090353,15.309622,0.033,0.961,-0.212,1.346,1.606,0.671,93.328,206927,1
1690535472367,-4.245736,3.591061,9.987586,16.966554,21.062556,19.434863,15.543748,15.350711,0.034,0.962,-0.211,1.369,1.642,0.699,93.328,206928,1
1690535472371,-5.253598,11.162331,13.593087,18.351085,22.157306,20.212822,10.558022,11.775255,0.033,0.961,-0.212,1.303,1.608,0.615,93.328,206929,1
1690535472375,2.73335,8.938129,15.872243,16.662988,20.117055,15.291071,8.901725,7.903166,0.035,0.961,-0.212,1.385,1.585,0.683,93.328,206930,1
1690535472379,4.675515,13.55547,14.476876,20.037911,17.894121,12.755123,3.478182,4.407489,0.033,0.961,-0.211,1.361,1.599,0.657,93.328,206931,1
1690535472383,8.355363,15.500188,19.754887,16.003068,18.263221,10.100458,-3.403786,0.648303,0.036,0.961,-0.21,1.275,1.63,0.563,93.328,206932,1
1690535472387,7.422978,16.55393,14.108791,14.771255,15.366551,2.156513,-3.039616,-7.642447,0.034,0.96,-0.212,1.42,1.642,0.569,93.328,206933,1
1690535472391,12.680427,13.006554,14.128465,15.90838,10.851892,-0.850151,-13.553938,-10.585135,0.034,0.961,-0.212,1.327,1.677,0.464,93.328,206934,1
1690535472395,14.201035,12.027276,10.6869,8.406832,9.242116,-4.898549,-11.772916,-15.710778,0.035,0.962,-0.213,1.369,1.605,0.598,93.328,206935,1
1690535472399,14.329391,14.444603,10.521306,4.506668,5.39843,-10.627555,-15.8843,-15.792652,0.032,0.963,-0.211,1.401,1.671,0.605,93.328,206936,1
1690535472403,15.715043,9.738277,7.95341,1.706346,6.160058,-13.669034,-18.359809,-15.873589,0.034,0.96,-0.211,1.418,1.631,0.595,93.328,206937,1
1690535472407,13.396149,6.50636,5.209877,-7.985825,-2.776065,-15.372654,-20.593192,-14.207471,0.03,0.963,-0.212,1.307,1.627,0.617,93.328,206938,1
1690535472411,11.959252,5.405075,-4.330306,-11.236945,-6.582976,-19.135027,-20.887511,-18.912059,0.032,0.96,-0.211,1.282,1.629,0.63,93.328,206939,1
1690535472415,0.55575,1.06006,-7.440771,-11.852994,-8.307837,-20.376172,-19.484684,-14.565334,0.033,0.961,-0.21,1.306,1.601,0.574,93.328,206940,1
1690535472419,2.422543,-7.759074,-8.798928,-12.220644,-12.630415,-17.402167,-18.910135,-12.217196,0.031,0.961,-0.212,1.362,1.684,0.538,93.328,206941,1
1690535472423,-4.94909,-13.115419,-12.469704,-15.501683,-8.855832,-22.40919,-12.914951,-7.673445,0.035,0.962,-0.211,1.454,1.62,0.634,93.328,206942,1
1690535472427,-8.028818,-13.137191,-13.121392,-12.466353,-8.30147,-16.764754,-11.614061,-0.391275,0.032,0.962,-0.212,1.315,1.517,0.654,93.328,206943,1
1690535472431,-13.473848,-15.709239,-17.215423,-13.304712,-2.364284,-16.295648,-3.496578,1.305112,0.032,0.961,-0.211,1.348,1.677,0.616,93.328,206944,1
1690535472435,-16.864116,-15.672784,-14.685101,-16.552628,-2.43342,-8.183258,0.049109,5.617011,0.032,0.961,-0.211,1.274,1.65,0.58,93.328,206945,1
1690535472439,-20.053785,-16.71741,-18.580013,-14.585385,1.286752,-6.110968,3.791261,9.027693,0.033,0.961,-0.213,1.341,1.623,0.628,93.328,206946,1
1690535472443,-21.602335,-16.203268,-17.964176,-9.315859,1.471406,0.951485,8.480959,11.017205,0.033,0.961,-0.209,1.381,1.676,0.602,93.328,206947,1
1690535472447,-19.354321,-16.775045,-17.023002,-6.194216,6.673249,6.365708,13.087324,14.147204,0.034,0.962,-0.21,1.33,1.66,0.625,93.328,206948,1
1690535472451,-19.85018,-16.329504,-10.496331,2.524479,11.717362,9.199072,15.248251,15.133724,0.033,0.962,-0.212,1.305,1.651,0.575,93.328,206949,1
1690535472455,-18.159232,-12.453317,-5.800578,5.350389,17.947757,10.966331,15.313571,15.189331,0.033,0.961,-0.209,1.335,1.645,0.465,93.328,206950,1
1690535472459,-16.33791,-8.393437,-0.91705,9.698163,20.038081,11.230253,18.077614,15.287112,0.031,0.96,-0.213,1.357,1.635,0.468,93.328,206951,1
1690535472463,-16.06212,-1.403564,3.392953,15.018491,22.876945,13.447398,16.391168,18.204151,0.034,0.961,-0.212,1.3,1.67,0.514,93.328,206952,1
1690535472467,-11.340844,0.13288,9.997826,16.572994,20.414352,13.595265,16.511408,9.205932,0.033,0.96,-0.211,1.385,1.609,0.596,93.328,206953,1
1690535472471,-7.358541,4.804249,12.537491,19.944069,19.159175,13.080068,9.290532,1.656129,0.036,0.962,-0.211,1.306,1.676,0.655,93.328,206954,1
1690535472475,1.341928,8.253051,16.759523,19.467506,21.47727,11.641215,6.503214,3.453917,0.032,0.961,-0.211,1.347,1.698,0.544,93.328,206955,1
1690535472479,4.816394,11.509283,17.29534,20.134871,18.277028,8.248455,4.963551,-0.764734,0.03,0.961,-0.21,1.429,1.635,0.578,93.328,206956,1
1690535472483,2.252425,13.240058,14.015446,23.811229,12.303619,4.720277,-2.319529,-7.42255,0.032,0.962,-0.211,1.308,1.576,0.541,93.328,206957,1
1690535472487,7.287781,16.69654,17.335421,17.218046,10.526298,-1.057876,-4.061887,-10.592344,0.031,0.963,-0.212,1.244,1.595,0.604,93.328,206958,1
1690535472491,10.608829,15.459086,17.758974,15.29883,4.137303,-1.212255,-7.5334,-16.608782,0.034,0.962,-0.211,1.273,1.56,0.568,93.328,206959,1
1690535472495,8.438402,13.853181,13.511478,11.847984,4.838767,-9.930254,-12.01138,-17.526958,0.031,0.962,-0.212,1.326,1.584,0.601,93.328,206960,1
1690535472499,9.863889,12.20123,8.800732,9.821811,-2.364399,-14.541315,-16.654281,-19.867478,0.033,0.962,-0.211,1.398,1.679,0.558,93.328,206961,1
1690535472503,12.555192,8.04829,6.295164,3.578072,-2.571633,-17.18826,-13.808633,-16.607269,0.035,0.961,-0.213,1.319,1.69,0.447,93.328,206962,1
1690535472507,14.509394,4.525136,3.425331,-1.432517,-5.235104,-22.446787,-17.649237,-20.362711,0.032,0.961,-0.212,1.487,1.67,0.512,93.328,206963,1
1690535472511,9.989412,5.055903,-2.432103,-7.265328,-6.944491,-21.841147,-19.079799,-15.928604,0.031,0.96,-0.213,1.279,1.483,0.587,93.328,206964,1
1690535472515,5.293866,-2.825616,-7.804247,-8.193015,-12.065207,-24.554548,-17.510518,-15.978674,0.03,0.963,-0.213,1.328,1.593,0.485,93.328,206965,1
1690535472519,2.440484,-4.480823,-9.453063,-9.232124,-16.877812,-19.122735,-14.114845,-9.530911,0.035,0.962,-0.211,1.355,1.596,0.582,93.328,206966,1
1690535472523,-2.365189,-9.539272,-11.579027,-13.978215,-18.454,-20.494799,-13.785654,-6.043013,0.034,0.96,-0.212,1.354,1.644,0.608,93.328,206967,1
1690535472527,-3.984113,-13.245965,-15.293039,-14.386223,-15.320646,-19.017449,-8.284422,1.767282,0.033,0.961,-0.21,1.294,1.497,0.669,93.328,206968,1
1690535472531,-8.401916,-13.570836,-18.34837,-14.361916,-13.152721,-12.086911,-2.197795,4.212267,0.031,0.962,-0.212,1.285,1.622,0.585,93.328,206969,1
1690535472535,-11.032749,-17.218708,-16.924828,-19.678554,-13.215494,-6.931904,3.425921,6.419512,0.033,0.959,-0.213,1.433,1.607,0.527,93.328,206970,1
1690535472539,-13.225162,-19.957248,-18.63687,-9.960069,-8.292588,-2.443947,4.585144,10.588423,0.037,0.961,-0.212,1.297,1.607,0.578,93.328,206971,1
1690535472543,-11.998542,-14.987841,-15.007137,-8.336161,-2.655794,-4.103893,13.800774,14.487566,0.038,0.962,-0.212,1.401,1.655,0.589,93.328,206972,1
1690535472547,-19.179722,-13.002171,-11.082439,-6.216203,-3.13884,3.973234,16.829448,15.839159,0.031,0.961,-0.21,1.401,1.671,0.547,93.328,206973,1
1690535472551,-19.782754,-8.995906,-9.561502,-4.528345,2.147415,11.082726,23.389533,15.646361,0.03,0.962,-0.212,1.402,1.612,0.543,93.328,206974,1
1690535472555,-16.822352,-5.866669,-3.711886,-2.001565,3.423707,13.450801,24.478282,18.402895,0.034,0.96,-0.211,1.339,1.604,0.488,93.328,206975,1
1690535472559,-12.377465,-6.34693,-2.19059,1.292531,9.257725,14.635215,24.092063,14.71013,0.032,0.962,-0.213,1.354,1.581,0.612,93.328,206976,1
1690535472563,-8.963623,-0.475994,3.242517,7.419981,8.308785,19.954562,20.886187,10.929369,0.032,0.961,-0.211,1.325,1.624,0.554,93.328,206977,1
1690535472567,-4.83721,3.105588,5.659088,10.48195,12.098793,15.532205,18.175036,11.038663,0.031,0.96,-0.211,1.371,1.576,0.59,93.328,206978,1
1690535472571,1.814278,10.834612,10.251108,14.98212,11.033674,16.821248,18.050795,7.296984,0.032,0.963,-0.211,1.358,1.603,0.509,93.328,206979,1
1690535472575,6.40587,15.764737,14.481437,19.310193,12.013946,14.802055,12.979309,5.010699,0.034,0.96,-0.212,1.365,1.581,0.488,93.328,206980,1
1690535472579,8.839239,14.63071,16.185016,17.184456,9.183795,14.40326,6.672248,1.651655,0.033,0.961,-0.21,1.387,1.579,0.534,93.328,206981,1
1690535472583,12.765678,21.680677,16.965823,16.662245,5.843833,8.721545,6.465128,-4.606462,0.03,0.962,-0.211,1.238,1.514,0.469,93.328,206982,1
1690535472587,16.211432,20.223703,17.995257,17.470571,1.486115,6.886913,-0.498054,-8.187153,0.035,0.96,-0.212,1.42,1.664,0.592,93.328,206983,1
1690535472591,12.933643,18.85202,17.977241,11.478963,-1.580452,1.84271,-1.670542,-10.724438,0.032,0.961,-0.21,1.376,1.572,0.503,93.328,206984,1
1690535472595,15.119182,19.86696,14.14602,6.26257,-3.729368,-6.344082,-4.599075,-12.290456,0.031,0.962,-0.212,1.349,1.595,0.572,93.328,206985,1
1690535472599,21.382418,17.230298,8.894255,8.151438,-10.763207,-11.898882,-9.51363,-16.034773,0.029,0.962,-0.21,1.276,1.678,0.523,93.328,206986,1
1690535472603,18.066167,15.342986,8.996704,-2.601811,-16.332702,-17.622456,-13.338821,-13.928761,0.036,0.961,-0.212,1.296,1.624,0.602,93.328,206987,1
1690535472607,15.906221,10.781538,4.680349,-1.468703,-20.4013,-16.209157,-12.343244,-13.930618,0.033,0.962,-0.212,1.34,1.67,0.574,93.328,206988,1
1690535472611,16.763512,2.626365,-2.26215,-9.832225,-23.668136,-21.459035,-15.117442,-12.272803,0.035,0.963,-0.211,1.357,1.639,0.534,93.328,206989,1
1690535472615,12.749933,1.864993,-7.522105,-12.007181,-23.572725,-17.283041,-9.619206,-14.581244,0.036,0.963,-0.212,1.372,1.61,0.595,93.328,206990,1
1690535472619,11.440273,-4.570656,-9.440138,-15.381553,-23.122537,-20.014881,-12.114834,-7.527531,0.031,0.961,-0.209,1.327,1.688,0.504,93.328,206991,1
1690535472623,4.899598,-12.015737,-14.630012,-16.547754,-26.827603,-17.10122,-12.701771,-2.090548,0.033,0.961,-0.211,1.409,1.627,0.606,93.328,206992,1
1690535472627,-3.403172,-15.872695,-14.419451,-21.434958,-22.942459,-12.804509,-7.387134,4.002055,0.033,0.961,-0.21,1.324,1.556,0.548,93.328,206993,1
1690535472631,-5.412769,-17.123801,-13.907715,-19.262658,-25.652707,-12.801585,-3.874769,8.729401,0.036,0.961,-0.212,1.392,1.692,0.452,93.328,206994,1
1690535472635,-5.532066,-16.989462,-16.322072,-18.550711,-23.542371,-4.631322,3.210307,10.199512,0.032,0.961,-0.209,1.252,1.679,0.487,93.328,206995,1
1690535472639,-5.876786,-17.719187,-15.690023,-18.087395,-20.596943,0.965009,3.911912,11.127881,0.034,0.961,-0.211,1.333,1.643,0.511,93.328,206996,1
1690535472643,-7.060256,-18.96135,-15.441722,-10.764332,-16.479608,4.428438,9.092567,16.521207,0.031,0.96,-0.215,1.215,1.584,0.572,93.328,206997,1
1690535472647,-10.237477,-13.641356,-13.162353,-10.165605,-7.170934,9.359149,13.202883,15.813342,0.031,0.961,-0.212,1.294,1.658,0.586,93.328,206998,1
1690535472651,-12.326873,-12.665113,-10.476408,-6.297893,-8.335389,13.378293,14.950908,23.556004,0.036,0.961,-0.211,1.34,1.6,0.474,93.328,206999,1
1690535472655,-5.727492,-7.430865,-7.278567,-3.974042,-2.40661,17.00344,15.009602,16.317923,0.029,0.962,-0.211,1.283,1.627,0.567,93.328,207000,1
1690535472659,-5.927728,-3.083621,-1.81586,0.791349,3.37728,18.115324,18.962801,17.700008,0.034,0.961,-0.212,1.262,1.593,0.561,93.328,207001,1
1690535472663,1.60879,-2.196858,6.713873,5.605386,4.208574,21.629545,17.175782,11.886056,0.035,0.962,-0.211,1.281,1.532,0.435,93.328,207002,1
1690535472667,-0.126331,-1.375922,7.150508,10.061633,6.841933,23.675395,14.061991,9.983643,0.032,0.961,-0.214,1.31,1.601,0.49,93.328,207003,1
1690535472671,7.518394,3.342372,10.654896,13.308777,7.598388,18.334104,16.005767,5.230521,0.032,0.964,-0.211,1.332,1.482,0.457,93.328,207004,1
1690535472675,15.499592,7.850751,12.246116,12.780777,6.696587,16.639881,13.424021,2.769864,0.036,0.962,-0.21,1.351,1.627,0.491,93.328,207005,1
1690535472679,16.289934,10.753814,15.207614,11.137575,7.54568,16.088142,7.397502,-4.558705,0.031,0.961,-0.212,1.338,1.572,0.557,93.328,207006,1
1690535472683,21.605741,19.34053,15.296409,10.030328,8.870394,11.937935,1.228809,-4.664064,0.033,0.961,-0.211,1.294,1.537,0.53,93.328,207007,1
1690535472687,22.140734,18.505644,16.215095,12.81508,-1.651555,7.530506,1.212195,-12.263727,0.033,0.962,-0.212,1.342,1.579,0.574,93.328,207008,1
1690535472691,24.801178,17.700295,17.841339,3.325611,-5.233914,5.797086,-6.51117,-16.413949,0.037,0.961,-0.212,1.328,1.597,0.473,93.328,207009,1
1690535472695,27.320001,13.119441,15.668145,1.729986,-7.033415,3.147967,-9.064363,-19.859804,0.032,0.96,-0.211,1.355,1.608,0.428,93.328,207010,1
1690535472699,25.889013,13.122974,13.687249,-0.319533,-11.71299,-4.967369,-13.38388,-23.573671,0.039,0.962,-0.211,1.348,1.565,0.507,93.328,207011,1
1690535472703,25.805374,11.904438,8.858906,-7.844044,-11.645983,-10.112703,-14.259507,-22.253934,0.032,0.962,-0.211,1.259,1.638,0.551,93.328,207012,1
1690535472707,23.280476,8.084173,3.342304,-11.271919,-18.740672,-9.580161,-21.973076,-19.871952,0.031,0.961,-0.208,1.213,1.644,0.497,93.328,207013,1
1690535472711,20.166826,2.956281,-0.613293,-15.88294,-20.594488,-13.042174,-17.898166,-15.526267,0.033,0.962,-0.212,1.322,1.605,0.458,93.328,207014,1
1690535472715,20.419742,-0.097235,-3.494485,-21.260926,-23.776378,-13.160289,-18.312708,-14.098933,0.033,0.96,-0.21,1.379,1.566,0.521,93.327,207015,1
1690535472719,14.1563,-8.806444,-9.593948,-23.711922,-25.078964,-17.536388,-17.982259,-12.164018,0.034,0.961,-0.21,1.283,1.521,0.5,93.327,207016,1
1690535472723,7.357814,-8.838766,-10.249237,-26.358061,-22.138203,-12.966811,-17.246851,-7.215782,0.034,0.961,-0.213,1.351,1.613,0.502,93.327,207017,1
1690535472727,2.687909,-13.559646,-14.800017,-25.632207,-24.210168,-13.717332,-9.076932,-4.190474,0.031,0.964,-0.209,1.362,1.563,0.464,93.327,207018,1
1690535472731,3.072414,-16.648501,-15.387151,-26.597836,-20.842634,-8.123192,-7.034036,2.232696,0.035,0.963,-0.211,1.297,1.546,0.555,93.327,207019,1
1690535472735,-4.427288,-23.023761,-19.927307,-23.843816,-12.570967,-4.161304,-6.1582,6.503004,0.031,0.963,-0.21,1.393,1.62,0.528,93.327,207020,1
